time,Fp1,Fp2,C3,C4
0.000000,-0.087858,0.612195,1.164498,1.382049
0.003906,0.298455,0.885720,1.296390,1.252464
0.007813,0.408178,1.038075,1.343715,1.190633
0.011719,0.526911,1.021135,1.163217,1.019946
0.015625,0.817575,1.135992,1.242374,0.880736
0.019531,0.732417,0.960095,1.025518,0.872632
0.023438,0.849325,0.979651,0.874121,0.541082
0.027344,0.746142,0.807293,0.796489,0.505707
0.031250,0.636774,0.698060,0.678198,0.409720
0.035156,0.710557,0.656817,0.574847,0.223798
0.039063,0.675470,0.638587,0.532116,0.156463
0.042969,0.628334,0.524507,0.542162,0.155334
0.046875,0.503546,0.577826,0.358630,0.070374
0.050781,0.643750,0.471398,0.368688,0.020276
0.054688,0.554450,0.416704,0.371692,-0.027390
0.058594,0.433794,0.354720,0.244601,-0.058352
0.062500,0.504284,0.242522,0.060509,-0.202257
0.066406,0.282121,0.161103,0.014874,-0.206265
0.070313,0.171124,0.169949,-0.045204,-0.206828
0.074219,0.023075,-0.006798,-0.067116,-0.047821
0.078125,-0.071305,0.044725,0.040451,-0.074026
0.082031,0.047402,-0.078801,0.037983,-0.000667
0.085938,-0.037857,0.043568,0.148570,0.222803
0.089844,-0.092669,0.098405,0.167344,0.335955
0.093750,0.029099,0.240595,0.363838,0.308646
0.097656,0.276418,0.470341,0.583285,0.439321
0.101563,0.434533,0.515255,0.562474,0.388356
0.105469,0.522571,0.601433,0.647665,0.518395
0.109375,0.557307,0.777953,0.501813,0.447780
0.113281,0.702081,0.678522,0.555456,0.216517
0.117188,0.702484,0.569206,0.380134,0.077599
0.121094,0.644902,0.595948,0.242416,0.012797
0.125000,0.658542,0.393231,0.278497,-0.120971
0.128906,0.496333,0.320500,0.201891,-0.171716
0.132813,0.369409,0.188600,0.058567,-0.133596
0.136719,0.374990,0.313579,0.020763,-0.186098
0.140625,0.225952,0.252899,0.087578,-0.244048
0.144531,0.247013,0.237118,0.095685,-0.151276
0.148438,0.363418,0.279176,0.094428,-0.138462
0.152344,0.210402,0.277979,-0.046004,-0.171207
0.156250,0.384469,0.175117,0.083763,-0.236815
0.160156,0.333609,0.221114,0.041639,-0.124519
0.164063,0.325792,0.112108,0.025184,-0.162898
0.167969,0.193144,0.051269,-0.017217,-0.143864
0.171875,0.161006,0.049512,-0.124681,-0.207009
0.175781,0.114390,-0.089029,-0.123126,-0.195561
0.179688,0.124728,-0.041299,-0.014507,-0.005436
0.183594,0.055956,0.083286,0.046390,0.008755
0.187500,0.226554,0.269249,0.102865,0.246808
0.191406,0.181824,0.391538,0.275067,0.209563
0.195313,0.282635,0.480470,0.448763,0.298982
0.199219,0.489033,0.538286,0.593208,0.209445
0.203125,0.786882,0.612147,0.623181,0.181657
0.207031,0.792041,0.762411,0.576789,0.130478
0.210938,0.898402,0.663391,0.449305,-0.061763
0.214844,1.009479,0.646097,0.258724,-0.337467
0.218750,0.963041,0.568807,0.023007,-0.422694
0.222656,0.869628,0.362038,-0.087960,-0.693632
0.226563,0.823547,0.229006,-0.410246,-0.870654
0.230469,0.684250,0.086787,-0.529659,-0.964762
0.234375,0.481011,-0.162308,-0.656525,-0.958727
0.238281,0.274902,-0.290399,-0.745980,-1.083948
0.242188,0.179452,-0.235529,-0.681857,-0.969167
0.246094,0.108635,-0.484157,-0.885377,-1.135599
0.250000,0.018426,-0.530144,-0.846789,-1.124972
0.253906,-0.026279,-0.542985,-0.894596,-1.039626
0.257813,-0.199941,-0.620398,-0.988996,-1.113324
0.261719,-0.291504,-0.844907,-1.142869,-0.984077
0.265625,-0.381093,-0.812824,-1.186887,-1.070950
0.269531,-0.626533,-0.971223,-1.123701,-1.010793
0.273438,-0.744174,-1.008591,-1.188402,-0.879854
0.277344,-0.805600,-1.191692,-0.989989,-0.848450
0.281250,-1.012423,-1.003552,-0.871131,-0.613262
0.285156,-0.942773,-0.967662,-0.753189,-0.464427
0.289063,-0.954193,-0.788787,-0.624114,-0.169466
0.292969,-0.894879,-0.793269,-0.475891,-0.065417
0.296875,-0.690275,-0.620378,-0.181446,0.169546
0.300781,-0.504478,-0.412068,-0.057347,0.154122
0.304688,-0.306605,-0.114996,-0.056807,0.300671
0.308594,-0.307268,-0.154887,0.059727,0.256961
0.312500,-0.121146,-0.038267,0.109811,0.119818
0.316406,-0.045724,0.052081,-0.073208,0.118543
0.320313,-0.050445,-0.008169,-0.075160,0.019069
0.324219,-0.059848,-0.056935,-0.255621,-0.096638
0.328125,-0.159030,-0.179636,-0.284743,-0.138063
0.332031,-0.253805,-0.316578,-0.315092,-0.327556
0.335938,-0.277519,-0.404897,-0.338430,-0.230175
0.339844,-0.367457,-0.383340,-0.334309,-0.170949
0.343750,-0.358010,-0.386257,-0.261159,-0.232486
0.347656,-0.300101,-0.272322,-0.303402,-0.177468
0.351563,-0.299527,-0.396261,-0.294849,-0.114286
0.355469,-0.231101,-0.335026,-0.235154,-0.245307
0.359375,-0.284047,-0.433353,-0.292264,-0.324168
0.363281,-0.271728,-0.475148,-0.390913,-0.232778
0.367188,-0.389656,-0.435115,-0.508818,-0.239670
0.371094,-0.594905,-0.537795,-0.530841,-0.327409
0.375000,-0.698423,-0.582098,-0.501927,-0.253361
0.378906,-0.681930,-0.629217,-0.486780,-0.015267
0.382813,-0.762680,-0.547788,-0.317064,-0.051088
0.386719,-0.579770,-0.549321,-0.291841,0.116887
0.390625,-0.648894,-0.410395,-0.031582,0.214495
0.394531,-0.540424,-0.149713,-0.013491,0.285999
0.398438,-0.285229,-0.136896,0.206035,0.435856
0.402344,-0.303097,-0.026228,0.252322,0.495300
0.406250,0.003503,0.061840,0.342036,0.356903
0.410156,0.070858,0.163327,0.330870,0.366985
0.414063,0.031066,0.052791,0.225410,0.117687
0.417969,0.071167,0.003471,0.127409,-0.004604
0.421875,-0.028440,-0.063507,-0.107526,-0.099907
0.425781,-0.108146,-0.109311,-0.112964,-0.086618
0.429688,-0.168525,-0.282383,-0.305623,-0.263972
0.433594,-0.412363,-0.417494,-0.409086,-0.180197
0.437500,-0.526499,-0.382451,-0.269819,-0.104946
0.441406,-0.512390,-0.459248,-0.326125,-0.138241
0.445313,-0.570631,-0.485424,-0.294571,-0.078517
0.449219,-0.597291,-0.476286,-0.317858,0.018175
0.453125,-0.576959,-0.433437,-0.302606,0.088337
0.457031,-0.594266,-0.464480,-0.249048,0.131580
0.460938,-0.733096,-0.443415,-0.125441,0.240147
0.464844,-0.676302,-0.544124,-0.178887,0.186599
0.468750,-0.689137,-0.419484,-0.220675,0.359927
0.472656,-0.681104,-0.551988,-0.061454,0.284283
0.476563,-0.726657,-0.456258,-0.057799,0.521461
0.480469,-0.876064,-0.358007,0.134705,0.580159
0.484375,-0.726325,-0.139586,0.419769,0.933770
0.488281,-0.675040,-0.020083,0.636473,0.959655
0.492188,-0.446377,0.110407,0.883535,1.169468
0.496094,-0.228287,0.405357,0.882197,1.248732
0.500000,-0.052345,0.622009,1.072381,1.278371
0.503906,0.141657,0.888683,1.278393,1.372531
0.507813,0.483277,1.065390,1.346810,1.199477
0.511719,0.706883,1.106417,1.223597,1.042412
0.515625,0.698700,1.099189,1.115253,0.944315
0.519531,0.858570,1.009292,1.084251,0.787313
0.523438,0.709013,0.964218,0.972814,0.658194
0.527344,0.823591,0.835241,0.785252,0.427201
0.531250,0.647888,0.838817,0.630646,0.362231
0.535156,0.737901,0.711475,0.495857,0.321442
0.539063,0.649145,0.749459,0.472196,0.170437
0.542969,0.675577,0.657753,0.365123,0.119949
0.546875,0.493683,0.586058,0.423506,0.121995
0.550781,0.580716,0.515806,0.387229,-0.001457
0.554688,0.456170,0.554775,0.213832,0.078742
0.558594,0.442050,0.447396,0.287264,0.048740
0.562500,0.408300,0.278826,0.017288,-0.119772
0.566406,0.403947,0.248034,0.110189,-0.232025
0.570313,0.180178,0.039093,0.024449,-0.169126
0.574219,0.061620,-0.022120,-0.021124,-0.209812
0.578125,0.030451,0.025938,-0.001654,-0.031291
0.582031,-0.039535,-0.008217,0.101076,0.017729
0.585938,0.047331,-0.025429,0.129451,0.110829
0.589844,0.054522,0.088081,0.207458,0.371885
0.593750,0.172030,0.332629,0.299576,0.447458
0.597656,0.184132,0.436035,0.575873,0.382638
0.601563,0.369609,0.507560,0.620181,0.406002
0.605469,0.566788,0.591185,0.632768,0.515432
0.609375,0.561502,0.683628,0.658526,0.438307
0.613281,0.611147,0.770348,0.438346,0.209371
0.617188,0.699423,0.541988,0.421956,0.154580
0.621094,0.614262,0.600418,0.380669,-0.021266
0.625000,0.660131,0.379357,0.200621,-0.104261
0.628906,0.564815,0.409034,0.026614,-0.201744
0.632813,0.381498,0.188729,-0.010753,-0.221500
0.636719,0.456812,0.148060,-0.076858,-0.129274
0.640625,0.303873,0.181336,-0.091845,-0.174614
0.644531,0.338250,0.179469,0.046693,-0.136247
0.648438,0.219081,0.085759,-0.073952,-0.145385
0.652344,0.316625,0.087822,0.101623,-0.195528
0.656250,0.382327,0.136704,0.003626,-0.183009
0.660156,0.220960,0.108103,-0.027776,-0.230882
0.664063,0.312146,0.064254,-0.131995,-0.266274
0.667969,0.253897,0.146960,-0.051574,-0.241600
0.671875,0.129614,0.054783,-0.022517,-0.133747
0.675781,0.111402,-0.070077,-0.110197,-0.221677
0.679688,0.069273,0.112742,-0.038002,-0.007222
0.683594,0.125900,0.104967,0.113109,0.109043
0.687500,0.216488,0.109250,0.200959,0.233390
0.691406,0.229945,0.407459,0.266631,0.167863
0.695313,0.362241,0.364494,0.489513,0.246607
0.699219,0.475793,0.529748,0.460436,0.196806
0.703125,0.715143,0.724699,0.590188,0.148802
0.707031,0.749889,0.778617,0.482660,0.085490
0.710938,0.876625,0.831319,0.342908,0.005804
0.714844,1.063525,0.645945,0.329244,-0.274014
0.718750,0.854249,0.482416,0.133933,-0.532538
0.722656,0.942816,0.490137,-0.099855,-0.596322
0.726563,0.737960,0.274654,-0.285430,-0.811171
0.730469,0.645818,0.027562,-0.557965,-0.897532
0.734375,0.461993,-0.150888,-0.646047,-0.986383
0.738281,0.358778,-0.210409,-0.748119,-1.050493
0.742188,0.296826,-0.317491,-0.850270,-1.035163
0.746094,0.022161,-0.452284,-0.786169,-1.036497
0.750000,0.066265,-0.582066,-0.865727,-1.041175
0.753906,-0.042816,-0.664075,-0.845054,-0.976356
0.757813,-0.216666,-0.736252,-0.957024,-1.064648
0.761719,-0.280462,-0.781195,-1.152605,-0.987413
0.765625,-0.440765,-0.985471,-1.202161,-1.128154
0.769531,-0.674090,-0.891131,-1.154411,-1.003155
0.773438,-0.666406,-1.130588,-1.083025,-0.881889
0.777344,-0.951452,-1.072648,-1.129424,-0.827703
0.781250,-0.887053,-1.058943,-0.927773,-0.683554
0.785156,-0.917391,-0.921238,-0.853947,-0.486816
0.789063,-0.965069,-0.800655,-0.659394,-0.103416
0.792969,-0.898098,-0.797555,-0.498373,0.043570
0.796875,-0.699651,-0.629394,-0.162049,0.065710
0.800781,-0.548640,-0.294959,-0.149166,0.302568
0.804688,-0.456249,-0.137127,0.004776,0.166665
0.808594,-0.242731,-0.192903,-0.015681,0.245609
0.812500,-0.079224,-0.036798,0.011156,0.164785
0.816406,-0.009498,-0.055304,0.026326,-0.035358
0.820313,-0.138501,-0.008068,-0.102384,-0.005247
0.824219,-0.060310,-0.123692,-0.249074,-0.172401
0.828125,-0.065897,-0.217095,-0.207152,-0.180097
0.832031,-0.150076,-0.355838,-0.273619,-0.211183
0.835938,-0.247547,-0.255728,-0.362730,-0.233887
0.839844,-0.229726,-0.296415,-0.374741,-0.259021
0.843750,-0.317831,-0.279028,-0.331322,-0.187147
0.847656,-0.350577,-0.410473,-0.378464,-0.223015
0.851563,-0.250319,-0.275634,-0.320160,-0.089105
0.855469,-0.223905,-0.326022,-0.257013,-0.133775
0.859375,-0.276308,-0.382947,-0.285135,-0.271804
0.863281,-0.396721,-0.373968,-0.468279,-0.306104
0.867188,-0.473090,-0.589254,-0.453259,-0.172771
0.871094,-0.490685,-0.485602,-0.463888,-0.252478
0.875000,-0.532476,-0.640819,-0.441664,-0.128447
0.878906,-0.705358,-0.706394,-0.355686,-0.088956
0.882813,-0.752252,-0.668095,-0.314795,0.033887
0.886719,-0.678838,-0.521558,-0.191133,0.132762
0.890625,-0.547976,-0.324173,-0.029344,0.355221
0.894531,-0.472794,-0.199932,-0.008371,0.399408
0.898438,-0.448022,-0.048234,0.258477,0.522526
0.902344,-0.207167,0.079876,0.234940,0.356318
0.906250,-0.125005,0.122797,0.264148,0.358924
0.910156,0.049052,0.218655,0.263611,0.287268
0.914063,0.118988,0.151775,0.186549,0.133026
0.917969,-0.064983,0.015290,-0.048445,0.096115
0.921875,0.030554,-0.156991,-0.150650,-0.176182
0.925781,-0.106378,-0.142011,-0.262312,-0.253748
0.929688,-0.261714,-0.366731,-0.218438,-0.217692
0.933594,-0.315708,-0.428975,-0.236797,-0.123089
0.937500,-0.398683,-0.478356,-0.384925,-0.144508
0.941406,-0.579743,-0.397759,-0.344422,-0.056383
0.945313,-0.520538,-0.559211,-0.250872,0.019614
0.949219,-0.483282,-0.513667,-0.277229,-0.073849
0.953125,-0.566714,-0.553403,-0.196435,0.140366
0.957031,-0.710282,-0.426571,-0.212624,0.015610
0.960938,-0.562980,-0.427126,-0.111596,0.075699
0.964844,-0.721987,-0.539282,-0.234941,0.262699
0.968750,-0.763540,-0.400249,-0.137516,0.249879
0.972656,-0.734775,-0.524157,-0.102292,0.458398
0.976563,-0.868532,-0.451412,-0.002814,0.470052
0.980469,-0.884000,-0.279605,0.265594,0.583816
0.984375,-0.694071,-0.136919,0.434999,0.945492
0.988281,-0.615393,0.025570,0.518308,0.991424
0.992188,-0.387725,0.099559,0.842067,1.230093
0.996094,-0.318169,0.493097,0.951387,1.341049
1.000000,-0.015544,0.659365,1.122461,1.285816
1.003906,0.169360,0.921984,1.278293,1.324945
1.007813,0.514735,0.916320,1.202088,1.157657
1.011719,0.655275,1.111040,1.328916,1.041168
1.015625,0.660548,1.003813,1.093728,1.001056
1.019531,0.765737,1.016107,1.062867,0.709972
1.023438,0.704426,0.945561,1.000442,0.663259
1.027344,0.818768,0.825725,0.719081,0.407914
1.031250,0.666437,0.873921,0.572577,0.320794
1.035156,0.596103,0.669334,0.505114,0.238553
1.039063,0.572810,0.567559,0.582342,0.246317
1.042969,0.705776,0.516218,0.503892,0.279475
1.046875,0.645163,0.606918,0.332380,0.115103
1.050781,0.616147,0.624820,0.442247,0.111849
1.054688,0.645989,0.411192,0.242995,0.033975
1.058594,0.531480,0.491019,0.105441,-0.035471
1.062500,0.464684,0.325588,0.156850,-0.146211
1.066406,0.381364,0.195558,0.070878,-0.143132
1.070313,0.236212,0.012221,0.015041,-0.244902
1.074219,0.192203,0.102509,-0.142919,-0.080737
1.078125,0.078692,0.023286,-0.076915,-0.016866
1.082031,-0.082527,-0.023500,-0.041296,-0.054980
1.085938,-0.026649,0.112280,0.087645,0.102552
1.089844,-0.038446,0.094511,0.202968,0.258770
1.093750,0.137894,0.198013,0.421040,0.481172
1.097656,0.231341,0.347547,0.407596,0.477661
1.101563,0.427735,0.471980,0.657901,0.402348
1.105469,0.406329,0.556264,0.604654,0.458141
1.109375,0.600624,0.600699,0.658103,0.397758
1.113281,0.615132,0.746597,0.555383,0.170874
1.117188,0.598775,0.649213,0.492817,0.093271
1.121094,0.632373,0.511077,0.256766,-0.045202
1.125000,0.679158,0.538914,0.128134,-0.167998
1.128906,0.611136,0.392094,0.192837,-0.130109
1.132813,0.409113,0.178053,-0.025553,-0.178670
1.136719,0.383601,0.226802,-0.025081,-0.161877
1.140625,0.394827,0.152801,-0.020676,-0.143686
1.144531,0.356781,0.230970,-0.025841,-0.196514
1.148438,0.226839,0.115096,0.010652,-0.205981
1.152344,0.205493,0.108339,0.021007,-0.109615
1.156250,0.247715,0.109948,-0.045735,-0.139217
1.160156,0.373546,0.183415,0.047017,-0.184257
1.164063,0.298098,0.137294,-0.024225,-0.155189
1.167969,0.295778,-0.013957,-0.024384,-0.198291
1.171875,0.077169,0.100614,-0.063671,-0.253879
1.175781,0.034352,0.031164,0.024026,-0.157597
1.179688,0.103635,0.076612,-0.060888,-0.001067
1.183594,0.033784,-0.009612,-0.026349,0.143692
1.187500,0.226938,0.127008,0.101981,0.126856
1.191406,0.156219,0.357671,0.403404,0.266304
1.195313,0.339808,0.411725,0.485503,0.214541
1.199219,0.593070,0.566203,0.536062,0.385909
1.203125,0.801361,0.606406,0.482765,0.181902
1.207031,0.924286,0.716098,0.439534,0.066546
1.210938,0.909838,0.796690,0.482794,-0.011405
1.214844,0.943101,0.640180,0.235087,-0.288752
1.218750,0.889732,0.614971,0.001260,-0.540034
1.222656,0.938209,0.423771,-0.185999,-0.717902
1.226563,0.757260,0.209535,-0.218389,-0.773777
1.230469,0.610160,0.003287,-0.460921,-1.010617
1.234375,0.494302,-0.090205,-0.607097,-1.022011
1.238281,0.240031,-0.208471,-0.786722,-1.008296
1.242188,0.127388,-0.387544,-0.741998,-1.123977
1.246094,0.081852,-0.457360,-0.895574,-1.022288
1.250000,0.003956,-0.544414,-0.982891,-1.081039
1.253906,-0.139997,-0.675046,-0.887105,-1.149049
1.257813,-0.144701,-0.718384,-0.903781,-1.132110
1.261719,-0.350364,-0.875470,-1.133144,-1.077937
1.265625,-0.372509,-0.806363,-1.121689,-1.110204
1.269531,-0.512132,-1.060271,-1.034049,-1.056460
1.273438,-0.771133,-1.161712,-1.205542,-0.955081
1.277344,-0.961652,-1.043540,-1.137123,-0.824282
1.281250,-0.864616,-1.001721,-1.025683,-0.541250
1.285156,-0.918278,-1.018453,-0.861259,-0.342720
1.289063,-1.022188,-0.842044,-0.644032,-0.114268
1.292969,-0.934274,-0.710373,-0.408549,-0.055877
1.296875,-0.690869,-0.509497,-0.316893,0.067397
1.300781,-0.553518,-0.358072,-0.029223,0.300461
1.304688,-0.427696,-0.152685,-0.069325,0.326646
1.308594,-0.211010,-0.025413,0.128885,0.222489
1.312500,-0.207913,-0.023950,0.119609,0.057665
1.316406,-0.171720,-0.062442,0.016644,0.082664
1.320313,-0.016814,-0.164359,-0.120875,-0.138550
1.324219,-0.135026,-0.241973,-0.252985,-0.220665
1.328125,-0.058826,-0.143384,-0.268620,-0.289734
1.332031,-0.201699,-0.270100,-0.262504,-0.313708
1.335938,-0.265290,-0.353823,-0.258374,-0.308592
1.339844,-0.196354,-0.427568,-0.404696,-0.220925
1.343750,-0.292174,-0.331190,-0.348000,-0.220628
1.347656,-0.327723,-0.305140,-0.355634,-0.120375
1.351563,-0.298901,-0.291468,-0.300975,-0.089416
1.355469,-0.397759,-0.381564,-0.290329,-0.186170
1.359375,-0.348332,-0.367524,-0.406570,-0.266481
1.363281,-0.331082,-0.505445,-0.370224,-0.168939
1.367188,-0.491029,-0.556695,-0.461140,-0.228137
1.371094,-0.509354,-0.516271,-0.382726,-0.343851
1.375000,-0.582649,-0.634056,-0.358344,-0.107881
1.378906,-0.738851,-0.656764,-0.479805,-0.147439
1.382813,-0.706207,-0.565118,-0.391243,0.096620
1.386719,-0.648738,-0.421535,-0.152175,0.165842
1.390625,-0.601443,-0.461390,0.029297,0.355454
1.394531,-0.568535,-0.175212,0.098230,0.437680
1.398438,-0.369243,-0.027135,0.118670,0.335680
1.402344,-0.209835,0.034330,0.251297,0.477724
1.406250,-0.176947,0.162411,0.198379,0.436357
1.410156,-0.085977,0.191970,0.143813,0.189811
1.414063,0.028309,0.114380,0.080334,0.181898
1.417969,-0.033987,0.109807,0.004183,0.120686
1.421875,-0.024897,-0.070196,-0.116366,-0.171534
1.425781,-0.091546,-0.247090,-0.246561,-0.143319
1.429688,-0.304341,-0.354175,-0.327184,-0.290805
1.433594,-0.258562,-0.407580,-0.360857,-0.147777
1.437500,-0.475991,-0.435656,-0.317010,-0.130850
1.441406,-0.451604,-0.457284,-0.347205,-0.185380
1.445313,-0.612383,-0.516800,-0.287280,-0.126310
1.449219,-0.571264,-0.538401,-0.297619,0.107488
1.453125,-0.528741,-0.445718,-0.317505,0.008849
1.457031,-0.629462,-0.402066,-0.242163,0.032746
1.460938,-0.575053,-0.548385,-0.189571,0.102672
1.464844,-0.615460,-0.495387,-0.206192,0.205227
1.468750,-0.826264,-0.557685,-0.138410,0.255647
1.472656,-0.841485,-0.547364,-0.029045,0.318112
1.476563,-0.802614,-0.410173,0.033983,0.469901
1.480469,-0.860395,-0.265424,0.275266,0.669778
1.484375,-0.738802,-0.146971,0.318704,0.806077
1.488281,-0.684974,-0.088952,0.573574,0.952682
1.492188,-0.370217,0.204208,0.775037,1.087619
1.496094,-0.323346,0.474253,0.923761,1.276370
1.500000,-0.098315,0.647476,1.152028,1.277739
1.503906,0.276354,0.765124,1.259162,1.233002
1.507813,0.422515,0.883400,1.322878,1.227058
1.511719,0.650109,1.097299,1.165247,1.038463
1.515625,0.743103,1.057794,1.093170,0.956971
1.519531,0.890257,1.142873,0.996229,0.721631
1.523438,0.884801,1.045148,0.821049,0.539498
1.527344,0.722164,0.922994,0.768934,0.448713
1.531250,0.716869,0.724187,0.637237,0.386152
1.535156,0.746427,0.664146,0.557638,0.191446
1.539063,0.658793,0.570585,0.482981,0.269455
1.542969,0.579485,0.537225,0.376536,0.270322
1.546875,0.636581,0.495762,0.323971,0.186194
1.550781,0.628057,0.622071,0.253495,0.029597
1.554688,0.470627,0.476271,0.302519,-0.012989
1.558594,0.470237,0.496347,0.142742,-0.109232
1.562500,0.376342,0.329265,0.147464,-0.078525
1.566406,0.298468,0.158143,-0.034735,-0.087848
1.570313,0.196901,0.121308,0.014494,-0.120117
1.574219,0.203738,0.112121,-0.095408,-0.147236
1.578125,0.092963,-0.114855,0.014263,-0.072556
1.582031,-0.114398,-0.081644,-0.062218,0.099137
1.585938,-0.087432,0.027392,0.205541,0.108809
1.589844,0.088936,0.202761,0.323290,0.360112
1.593750,0.070752,0.258193,0.456587,0.331735
1.597656,0.134841,0.309964,0.506249,0.510111
1.601563,0.367755,0.522065,0.515865,0.425878
1.605469,0.429118,0.582597,0.585625,0.353772
1.609375,0.627705,0.761014,0.650104,0.439003
1.613281,0.688164,0.657558,0.623056,0.228353
1.617188,0.625021,0.729566,0.467543,0.196955
1.621094,0.726927,0.538253,0.388800,-0.064924
1.625000,0.603877,0.528981,0.216831,-0.062995
1.628906,0.468093,0.288444,0.007665,-0.234347
1.632813,0.460272,0.260116,0.045128,-0.181475
1.636719,0.304305,0.252430,-0.054448,-0.217351
1.640625,0.289387,0.224054,0.047230,-0.243848
1.644531,0.251780,0.238885,-0.025278,-0.223355
1.648438,0.245973,0.220500,-0.004932,-0.178576
1.652344,0.212872,0.185255,0.065101,-0.108072
1.656250,0.318397,0.155344,0.103311,-0.237151
1.660156,0.340831,0.068703,0.070104,-0.205183
1.664063,0.307505,0.155929,-0.146071,-0.218576
1.667969,0.283030,0.151265,-0.079054,-0.205033
1.671875,0.147903,0.038613,-0.162602,-0.260455
1.675781,0.100675,0.004339,0.000855,-0.143828
1.679688,-0.015849,0.099574,0.042753,-0.030480
1.683594,0.039069,0.057111,0.009779,-0.032733
1.687500,0.205289,0.235904,0.185463,0.226882
1.691406,0.329559,0.231881,0.338596,0.275363
1.695313,0.473450,0.522403,0.452899,0.279640
1.699219,0.571141,0.563346,0.532678,0.224863
1.703125,0.684345,0.680544,0.580673,0.186757
1.707031,0.799750,0.791192,0.547671,0.096174
1.710938,0.881158,0.684308,0.392736,-0.096398
1.714844,0.920217,0.719068,0.210310,-0.354152
1.718750,1.010693,0.574109,0.032068,-0.556787
1.722656,0.817301,0.466841,-0.046609,-0.624979
1.726563,0.743836,0.208777,-0.322063,-0.868186
1.730469,0.544664,-0.021423,-0.406233,-0.842476
1.734375,0.364121,-0.149144,-0.516310,-0.968265
1.738281,0.367956,-0.296233,-0.774112,-1.016721
1.742188,0.160341,-0.364799,-0.787123,-1.064435
1.746094,0.049574,-0.394337,-0.814818,-1.039765
1.750000,-0.061383,-0.530788,-0.905226,-1.024296
1.753906,-0.112820,-0.592124,-1.029875,-1.032116
1.757813,-0.224987,-0.651277,-0.992359,-0.966893
1.761719,-0.273935,-0.862016,-1.103797,-1.048760
1.765625,-0.467977,-0.984406,-1.170518,-1.050678
1.769531,-0.642667,-0.924410,-1.076960,-0.900547
1.773438,-0.758047,-1.072841,-1.095021,-0.830663
1.777344,-0.810381,-1.128400,-1.030817,-0.788194
1.781250,-0.978032,-1.177241,-0.928003,-0.568550
1.785156,-0.880533,-1.070199,-0.885745,-0.372482
1.789063,-0.944674,-0.983041,-0.652763,-0.109933
1.792969,-0.885732,-0.643128,-0.427065,0.025469
1.796875,-0.689997,-0.547191,-0.272252,0.169693
1.800781,-0.563850,-0.322064,-0.084964,0.251916
1.804688,-0.355679,-0.193099,0.109274,0.166736
1.808594,-0.328099,-0.047026,0.007700,0.283968
1.812500,-0.060949,0.021660,0.020694,0.091997
1.816406,-0.121320,0.036827,0.041861,-0.019760
1.820313,-0.091101,-0.101976,-0.143088,-0.012364
1.824219,-0.160209,-0.139239,-0.078978,-0.232790
1.828125,-0.178705,-0.129117,-0.157091,-0.141601
1.832031,-0.207187,-0.347539,-0.209673,-0.236757
1.835938,-0.333573,-0.393994,-0.233068,-0.333713
1.839844,-0.275033,-0.400120,-0.353473,-0.253548
1.843750,-0.325133,-0.353047,-0.380564,-0.200945
1.847656,-0.253783,-0.327076,-0.203851,-0.129063
1.851563,-0.313931,-0.259923,-0.371621,-0.269328
1.855469,-0.248351,-0.280551,-0.354329,-0.140115
1.859375,-0.290831,-0.360414,-0.347969,-0.211895
1.863281,-0.326068,-0.508782,-0.411259,-0.237993
1.867188,-0.497700,-0.581465,-0.408617,-0.345413
1.871094,-0.485814,-0.654018,-0.556248,-0.171979
1.875000,-0.559483,-0.601351,-0.456260,-0.247518
1.878906,-0.758806,-0.562507,-0.412255,-0.064164
1.882813,-0.749865,-0.483733,-0.353738,0.009024
1.886719,-0.727753,-0.480305,-0.161018,0.214124
1.890625,-0.695011,-0.415622,-0.035867,0.285746
1.894531,-0.555084,-0.326518,0.126639,0.393575
1.898438,-0.323175,-0.147425,0.190609,0.499342
1.902344,-0.193503,-0.046376,0.188057,0.408864
1.906250,-0.161185,0.134868,0.291781,0.302656
1.910156,-0.089901,0.227775,0.214926,0.271276
1.914063,0.107282,0.201963,0.093735,0.218084
1.917969,0.069471,0.019888,0.008467,-0.051224
1.921875,-0.055906,-0.153127,-0.059217,-0.083667
1.925781,-0.094086,-0.236867,-0.282394,-0.170786
1.929688,-0.216436,-0.316029,-0.282224,-0.186552
1.933594,-0.267958,-0.401299,-0.360248,-0.201756
1.937500,-0.531423,-0.440363,-0.333123,-0.072424
1.941406,-0.444933,-0.540395,-0.279388,-0.142402
1.945313,-0.548048,-0.496234,-0.355815,0.013554
1.949219,-0.560083,-0.480915,-0.174446,0.066665
1.953125,-0.611253,-0.473349,-0.179110,0.037520
1.957031,-0.594218,-0.472283,-0.282621,0.028624
1.960938,-0.581452,-0.441881,-0.235277,0.210152
1.964844,-0.696147,-0.548963,-0.074661,0.251737
1.968750,-0.753232,-0.439342,-0.052745,0.299836
1.972656,-0.708846,-0.488624,-0.069313,0.353794
1.976563,-0.784558,-0.535961,-0.043613,0.484005
1.980469,-0.702182,-0.315673,0.189543,0.624505
1.984375,-0.694733,-0.152326,0.371906,0.835061
1.988281,-0.708461,-0.054319,0.663199,0.961665
1.992188,-0.527584,0.250773,0.875330,1.275909
1.996094,-0.182340,0.467546,1.034495,1.317444
2.000000,0.060853,0.643771,1.072279,1.383593
2.003906,0.187168,0.862442,1.211905,1.322442
2.007813,0.489817,1.057960,1.215890,1.228702
2.011719,0.650443,0.971405,1.206986,1.186004
2.015625,0.787310,1.175678,1.217782,0.884917
2.019531,0.779697,1.081365,0.950536,0.772459
2.023438,0.789846,1.030413,0.844497,0.554610
2.027344,0.780589,0.803001,0.824818,0.377458
2.031250,0.770813,0.769217,0.665494,0.317097
2.035156,0.730940,0.641298,0.569929,0.225756
2.039063,0.566240,0.715414,0.598356,0.149187
2.042969,0.626796,0.652347,0.392263,0.115970
2.046875,0.542466,0.529225,0.423233,0.087429
2.050781,0.651398,0.585224,0.270610,0.033985
2.054688,0.467288,0.549425,0.200480,0.039404
2.058594,0.406392,0.496006,0.250502,-0.136350
2.062500,0.513862,0.332483,0.178433,-0.195795
2.066406,0.430345,0.230398,-0.067398,-0.224480
2.070313,0.328269,0.125490,-0.020631,-0.094624
2.074219,0.018458,0.017471,-0.074674,-0.152330
2.078125,0.026001,0.040009,-0.150909,-0.138236
2.082031,0.047450,-0.058807,0.106747,-0.041155
2.085938,-0.090061,0.019222,0.160631,0.118224
2.089844,-0.080208,0.186792,0.182171,0.238834
2.093750,0.084980,0.214390,0.293881,0.330788
2.097656,0.136423,0.462694,0.571701,0.557546
2.101563,0.362015,0.517288,0.577372,0.384380
2.105469,0.572258,0.586816,0.585893,0.417571
2.109375,0.583131,0.609389,0.665291,0.300660
2.113281,0.647965,0.623177,0.437419,0.228146
2.117188,0.669165,0.657650,0.367401,0.202758
2.121094,0.685392,0.578326,0.241914,0.050707
2.125000,0.681181,0.396962,0.227316,-0.190592
2.128906,0.432743,0.396552,0.151719,-0.235779
2.132813,0.421299,0.289255,0.136480,-0.109226
2.136719,0.345394,0.191126,-0.015752,-0.172634
2.140625,0.325419,0.279335,-0.010737,-0.236184
2.144531,0.337295,0.227072,-0.009211,-0.238956
2.148438,0.383273,0.092721,0.050074,-0.085860
2.152344,0.354339,0.099072,0.112158,-0.147909
2.156250,0.338427,0.145780,0.100472,-0.145929
2.160156,0.365564,0.160673,-0.025754,-0.105600
2.164063,0.208014,0.083844,-0.028495,-0.183950
2.167969,0.261823,-0.027208,-0.007424,-0.242128
2.171875,0.109271,0.060475,-0.182387,-0.114314
2.175781,0.165219,0.063923,-0.061050,-0.040880
2.179688,0.096392,0.099591,-0.071202,-0.026857
2.183594,0.128720,0.167798,0.049156,0.042380
2.187500,0.206819,0.145319,0.243521,0.249912
2.191406,0.281900,0.280618,0.303848,0.142621
2.195313,0.478818,0.496845,0.474151,0.223759
2.199219,0.483224,0.502924,0.595332,0.239730
2.203125,0.688435,0.670835,0.459910,0.160653
2.207031,0.782805,0.806780,0.578280,0.065546
2.210938,1.023189,0.764859,0.444778,-0.062452
2.214844,0.931604,0.777564,0.192749,-0.226449
2.218750,0.863568,0.525072,0.085329,-0.547693
2.222656,0.848595,0.379840,-0.036469,-0.679562
2.226563,0.845157,0.256675,-0.386999,-0.704172
2.230469,0.535195,0.058061,-0.513840,-0.822121
2.234375,0.552510,-0.061903,-0.572516,-0.999740
2.238281,0.304805,-0.303077,-0.791247,-1.112052
2.242188,0.163793,-0.271293,-0.721064,-1.069506
2.246094,0.012913,-0.415406,-0.749037,-0.952073
2.250000,0.091535,-0.532318,-0.935114,-1.021477
2.253906,-0.046633,-0.555885,-1.029573,-1.068054
2.257813,-0.176110,-0.754833,-0.932902,-1.031396
2.261719,-0.226308,-0.716102,-1.122655,-1.003842
2.265625,-0.432082,-0.936936,-1.183424,-1.028150
2.269531,-0.505925,-1.042371,-1.143131,-0.903981
2.273438,-0.695078,-0.981212,-1.131421,-0.977008
2.277344,-0.868797,-1.156704,-0.998232,-0.865525
2.281250,-1.024955,-0.984713,-0.874169,-0.677573
2.285156,-0.983923,-1.045035,-0.706774,-0.451441
2.289063,-0.877423,-0.798194,-0.651880,-0.276882
2.292969,-0.850995,-0.777152,-0.376109,0.029319
2.296875,-0.708327,-0.461339,-0.324744,0.049341
2.300781,-0.536943,-0.327227,-0.166758,0.183351
2.304688,-0.362534,-0.124947,-0.065393,0.331918
2.308594,-0.272329,-0.196312,-0.010432,0.296576
2.312500,-0.179116,-0.148472,0.037823,0.190815
2.316406,-0.137460,-0.009245,0.072234,-0.004378
2.320313,-0.054207,-0.153731,-0.051038,-0.141945
2.324219,0.003689,-0.073939,-0.122026,-0.216484
2.328125,-0.231577,-0.224560,-0.222990,-0.202754
2.332031,-0.247789,-0.226676,-0.350946,-0.283793
2.335938,-0.304279,-0.255304,-0.292234,-0.271461
2.339844,-0.344926,-0.328970,-0.355407,-0.136512
2.343750,-0.272516,-0.317946,-0.406803,-0.216472
2.347656,-0.345247,-0.257447,-0.394133,-0.117968
2.351563,-0.306320,-0.412937,-0.233851,-0.200880
2.355469,-0.382390,-0.433512,-0.312684,-0.231891
2.359375,-0.397022,-0.457442,-0.256878,-0.323851
2.363281,-0.283541,-0.476152,-0.366259,-0.165785
2.367188,-0.344331,-0.532897,-0.505315,-0.306416
2.371094,-0.531528,-0.528040,-0.546310,-0.217181
2.375000,-0.595840,-0.597231,-0.459937,-0.113926
2.378906,-0.708465,-0.540758,-0.499809,-0.121052
2.382813,-0.638939,-0.509750,-0.270516,-0.077527
2.386719,-0.669615,-0.477139,-0.138408,0.127063
2.390625,-0.623852,-0.357645,-0.141571,0.199365
2.394531,-0.551320,-0.215687,0.067169,0.296228
2.398438,-0.374665,-0.159902,0.172374,0.351013
2.402344,-0.162962,0.084802,0.340074,0.514794
2.406250,-0.000845,0.122979,0.365518,0.287738
2.410156,0.101100,0.158701,0.148936,0.206065
2.414063,0.115558,0.156596,0.103513,0.261826
2.417969,-0.052233,0.138476,0.042844,0.064844
2.421875,-0.097304,-0.101377,-0.074972,-0.020345
2.425781,-0.199615,-0.274149,-0.212742,-0.097603
2.429688,-0.324895,-0.215885,-0.222086,-0.303897
2.433594,-0.366958,-0.319675,-0.266955,-0.270724
2.437500,-0.375957,-0.396869,-0.371501,-0.119853
2.441406,-0.566181,-0.530709,-0.293508,-0.062797
2.445313,-0.562332,-0.390765,-0.250812,-0.124470
2.449219,-0.482196,-0.524676,-0.254407,0.026436
2.453125,-0.526291,-0.512619,-0.293240,0.146530
2.457031,-0.661193,-0.427171,-0.138713,0.065292
2.460938,-0.562974,-0.471544,-0.115348,0.176232
2.464844,-0.684507,-0.525788,-0.203587,0.134858
2.468750,-0.794557,-0.532089,-0.228015,0.333320
2.472656,-0.870826,-0.380074,-0.135487,0.392125
2.476563,-0.878038,-0.416362,0.115434,0.535474
2.480469,-0.833555,-0.427626,0.163921,0.654951
2.484375,-0.681390,-0.203528,0.438307,0.769807
2.488281,-0.630819,-0.012507,0.602539,1.107872
2.492188,-0.438694,0.265956,0.705405,1.087308
2.496094,-0.212634,0.509726,0.950398,1.344087
2.500000,0.039390,0.598109,1.093431,1.425734
2.503906,0.309229,0.881060,1.272149,1.341208
2.507813,0.462183,0.902963,1.281360,1.204704
2.511719,0.559814,1.139787,1.316844,1.180471
2.515625,0.774550,1.131483,1.215269,0.867960
2.519531,0.735259,1.044484,1.010757,0.853756
2.523438,0.737537,1.011336,0.925374,0.651717
2.527344,0.857087,0.902991,0.776894,0.447499
2.531250,0.803773,0.753681,0.761702,0.329875
2.535156,0.651116,0.662407,0.540343,0.324121
2.539063,0.623047,0.577229,0.520596,0.151615
2.542969,0.640826,0.559094,0.369953,0.228624
2.546875,0.518539,0.548120,0.371824,0.206725
2.550781,0.604724,0.556074,0.325796,0.120975
2.554688,0.461006,0.473708,0.224848,-0.073523
2.558594,0.589436,0.502856,0.231850,0.038615
2.562500,0.527442,0.295209,0.094502,-0.068779
2.566406,0.395768,0.234303,-0.024241,-0.163648
2.570313,0.254823,0.060835,-0.050586,-0.199947
2.574219,0.203547,-0.041820,0.014233,-0.125847
2.578125,0.037298,0.003178,-0.057002,-0.047726
2.582031,-0.052500,-0.025209,0.045867,-0.008751
2.585938,-0.141800,0.097188,0.076975,0.163507
2.589844,0.028960,0.172774,0.333385,0.353043
2.593750,0.186068,0.233968,0.424965,0.396230
2.597656,0.293196,0.347644,0.535645,0.421610
2.601563,0.290812,0.628355,0.528655,0.541325
2.605469,0.513350,0.686438,0.535514,0.535106
2.609375,0.674951,0.586896,0.607060,0.417529
2.613281,0.623483,0.598593,0.467957,0.258513
2.617188,0.731848,0.720404,0.346199,0.028130
2.621094,0.644081,0.646703,0.285725,-0.091959
2.625000,0.638907,0.360440,0.100242,-0.165042
2.628906,0.501058,0.449208,0.105496,-0.213622
2.632813,0.471463,0.245103,-0.052081,-0.212073
2.636719,0.423760,0.154605,0.056125,-0.240653
2.640625,0.350646,0.271954,0.087340,-0.198873
2.644531,0.243769,0.151989,0.095880,-0.154542
2.648438,0.340767,0.109557,0.111329,-0.189671
2.652344,0.291808,0.273545,0.022501,-0.239937
2.656250,0.377360,0.122692,-0.025704,-0.131491
2.660156,0.328746,0.123776,0.070683,-0.153430
2.664063,0.297667,0.020360,-0.086470,-0.188757
2.667969,0.265190,-0.026301,-0.147495,-0.264855
2.671875,0.078174,-0.066404,-0.022871,-0.256179
2.675781,0.105684,-0.053236,-0.044334,-0.183323
2.679688,-0.025914,-0.046624,-0.016774,-0.063005
2.683594,0.161800,0.180904,0.057262,0.085811
2.687500,0.177548,0.147290,0.265410,0.085254
2.691406,0.214554,0.267027,0.312241,0.221895
2.695313,0.331565,0.470484,0.382990,0.304899
2.699219,0.532331,0.527664,0.596545,0.377260
2.703125,0.796681,0.749884,0.569299,0.249556
2.707031,0.880686,0.805328,0.475212,0.098440
2.710938,0.933819,0.830861,0.435772,-0.020972
2.714844,1.054309,0.704084,0.279204,-0.315204
2.718750,0.963889,0.653591,0.089797,-0.490515
2.722656,0.830165,0.492667,-0.216628,-0.649441
2.726563,0.757592,0.325744,-0.288635,-0.841548
2.730469,0.545674,0.095450,-0.455762,-0.843994
2.734375,0.419327,-0.056709,-0.535795,-1.017682
2.738281,0.242625,-0.244690,-0.630362,-0.964535
2.742188,0.243952,-0.340721,-0.680487,-1.100778
2.746094,0.132525,-0.436778,-0.927282,-1.060468
2.750000,-0.038024,-0.483130,-0.976344,-1.021871
2.753906,-0.126558,-0.592447,-1.020717,-0.963131
2.757813,-0.279104,-0.674086,-0.975054,-1.084556
2.761719,-0.223120,-0.847089,-1.064352,-1.070458
2.765625,-0.548550,-0.836347,-1.076614,-1.004931
2.769531,-0.675672,-1.022459,-1.202081,-0.945674
2.773438,-0.690881,-1.044989,-1.206355,-0.853606
2.777344,-0.921668,-1.122218,-1.001643,-0.812383
2.781250,-0.886820,-1.051456,-0.895457,-0.509154
2.785156,-0.926867,-0.918148,-0.730232,-0.471410
2.789063,-0.950234,-0.832713,-0.526476,-0.265124
2.792969,-0.822214,-0.709520,-0.353059,-0.054403
2.796875,-0.736089,-0.472820,-0.194145,0.157153
2.800781,-0.459989,-0.385245,-0.003027,0.287534
2.804688,-0.410865,-0.212199,-0.050908,0.205567
2.808594,-0.280243,-0.052431,0.011945,0.228063
2.812500,-0.211085,-0.098410,0.069275,0.102825
2.816406,-0.109335,0.031538,0.026216,-0.013889
2.820313,0.010005,-0.172502,-0.060930,-0.025215
2.824219,-0.104601,-0.144383,-0.237544,-0.155466
2.828125,-0.148596,-0.144773,-0.334058,-0.131141
2.832031,-0.213509,-0.302900,-0.251939,-0.249736
2.835938,-0.263339,-0.407048,-0.274071,-0.192746
2.839844,-0.267901,-0.348910,-0.313229,-0.185274
2.843750,-0.368748,-0.343496,-0.398046,-0.293599
2.847656,-0.373976,-0.410900,-0.393777,-0.131310
2.851563,-0.272112,-0.412668,-0.362820,-0.140679
2.855469,-0.274770,-0.431696,-0.388596,-0.102126
2.859375,-0.350118,-0.366991,-0.357254,-0.161162
2.863281,-0.335781,-0.353600,-0.467211,-0.265475
2.867188,-0.474161,-0.501618,-0.506192,-0.195655
2.871094,-0.572764,-0.501901,-0.532674,-0.335238
2.875000,-0.654869,-0.526705,-0.392541,-0.243289
2.878906,-0.705939,-0.643178,-0.443112,-0.021728
2.882813,-0.592105,-0.549899,-0.255053,0.076661
2.886719,-0.572792,-0.429990,-0.126958,0.110684
2.890625,-0.584813,-0.353216,-0.060319,0.322663
2.894531,-0.574186,-0.169318,0.155532,0.426040
2.898438,-0.437836,-0.188355,0.261008,0.403927
2.902344,-0.190507,-0.028143,0.276574,0.358563
2.906250,-0.167770,0.203151,0.286821,0.383851
2.910156,0.024676,0.076056,0.164021,0.315859
2.914063,0.036648,0.152576,0.151599,0.081986
2.917969,0.007834,-0.030154,0.088792,0.112194
2.921875,-0.085577,0.005511,-0.118732,-0.153019
2.925781,-0.145195,-0.128061,-0.235093,-0.240516
2.929688,-0.310456,-0.256637,-0.203630,-0.299961
2.933594,-0.276996,-0.336939,-0.297152,-0.265141
2.937500,-0.336770,-0.468416,-0.289631,-0.165214
2.941406,-0.514531,-0.497186,-0.387294,-0.179933
2.945313,-0.544986,-0.467328,-0.391381,-0.079255
2.949219,-0.632377,-0.517052,-0.356278,-0.072968
2.953125,-0.566431,-0.506603,-0.313317,0.147138
2.957031,-0.708443,-0.507331,-0.265665,0.152148
2.960938,-0.568199,-0.443804,-0.250517,0.192181
2.964844,-0.602139,-0.543524,-0.182670,0.285466
2.968750,-0.726615,-0.480810,-0.198582,0.358700
2.972656,-0.820105,-0.383993,-0.036401,0.282413
2.976563,-0.789645,-0.523213,-0.026467,0.539131
2.980469,-0.756509,-0.411374,0.085831,0.599261
2.984375,-0.695436,-0.180346,0.413560,0.851709
2.988281,-0.624883,-0.054315,0.564784,1.068139
2.992188,-0.509856,0.118376,0.684533,1.107823
2.996094,-0.320978,0.366806,0.983527,1.201800
3.000000,-0.005861,0.674936,1.136049,1.428668
3.003906,0.277967,0.880319,1.247352,1.329418
3.007813,0.502929,0.887546,1.241544,1.162288
3.011719,0.562620,1.084799,1.207363,1.036745
3.015625,0.767278,1.103590,1.119951,0.926393
3.019531,0.769020,1.053098,1.063958,0.719678
3.023438,0.815473,1.035681,0.826151,0.550425
3.027344,0.858458,0.976573,0.681476,0.427040
3.031250,0.763568,0.821223,0.690193,0.278196
3.035156,0.670925,0.773912,0.542289,0.237704
3.039063,0.559532,0.670634,0.514098,0.234007
3.042969,0.673245,0.593927,0.362704,0.146448
3.046875,0.659722,0.491787,0.372822,0.136519
3.050781,0.614815,0.453219,0.411055,0.005744
3.054688,0.598395,0.410266,0.346987,0.108399
3.058594,0.407551,0.444176,0.223602,-0.088837
3.062500,0.383371,0.307796,0.165247,-0.117675
3.066406,0.304436,0.259272,0.127075,-0.118096
3.070313,0.229270,0.060905,0.058413,-0.238123
3.074219,0.032379,0.010884,-0.153939,-0.234629
3.078125,-0.054135,-0.082327,-0.143059,-0.057657
3.082031,0.024068,0.022822,0.048259,0.094133
3.085938,-0.121365,0.033304,0.032338,0.116587
3.089844,-0.008944,0.146022,0.275713,0.381898
3.093750,0.140464,0.186131,0.460411,0.456973
3.097656,0.185207,0.449566,0.521347,0.404938
3.101563,0.302648,0.526274,0.658062,0.543046
3.105469,0.554027,0.535300,0.654922,0.511493
3.109375,0.636870,0.730039,0.651446,0.266707
3.113281,0.738580,0.607108,0.502744,0.189475
3.117188,0.692158,0.709210,0.359674,0.157907
3.121094,0.723650,0.503480,0.282677,0.004663
3.125000,0.675821,0.529241,0.128406,-0.036380
3.128906,0.421885,0.373372,0.053157,-0.117593
3.132813,0.536175,0.187053,0.076794,-0.200306
3.136719,0.395094,0.269930,-0.007194,-0.265447
3.140625,0.379919,0.219087,-0.085288,-0.251964
3.144531,0.304746,0.139220,0.070156,-0.083076
3.148438,0.308558,0.273611,-0.068740,-0.056425
3.152344,0.241034,0.132830,0.046819,-0.058016
3.156250,0.331108,0.086264,0.104467,-0.085144
3.160156,0.287636,0.193251,-0.028270,-0.208746
3.164063,0.264305,0.066506,-0.069628,-0.134484
3.167969,0.174777,0.094304,-0.044608,-0.240260
3.171875,0.171767,-0.013177,-0.170451,-0.241320
3.175781,0.176674,0.099925,-0.121273,-0.159549
3.179688,0.072528,-0.018681,0.053206,-0.144632
3.183594,0.078852,0.147927,0.027970,-0.051261
3.187500,0.221239,0.219101,0.249625,0.108370
3.191406,0.195472,0.262378,0.354790,0.156138
3.195313,0.458143,0.438471,0.371971,0.192362
3.199219,0.484724,0.569665,0.589315,0.256653
3.203125,0.795873,0.627737,0.576355,0.287123
3.207031,0.874217,0.752305,0.418514,0.059534
3.210938,1.018731,0.854574,0.304200,-0.058904
3.214844,0.878286,0.717557,0.332853,-0.258553
3.218750,0.975281,0.513048,-0.019709,-0.433127
3.222656,0.952850,0.504768,-0.069135,-0.552562
3.226563,0.723980,0.208370,-0.240633,-0.728835
3.230469,0.623747,0.078611,-0.525933,-0.845894
3.234375,0.456941,-0.087738,-0.576792,-1.066745
3.238281,0.237639,-0.248977,-0.635913,-0.940850
3.242188,0.294961,-0.296090,-0.708158,-1.122556
3.246094,0.134666,-0.374457,-0.927722,-0.984987
3.250000,0.069364,-0.413634,-0.948164,-1.065926
3.253906,-0.177918,-0.511040,-0.969433,-0.973089
3.257813,-0.241093,-0.700254,-1.087593,-1.114838
3.261719,-0.368420,-0.839383,-1.147282,-1.045481
3.265625,-0.511324,-0.902217,-1.070016,-1.078956
3.269531,-0.620240,-0.957761,-1.219321,-0.924506
3.273438,-0.822714,-1.139069,-1.145936,-0.911211
3.277344,-0.881585,-1.097114,-1.054316,-0.862813
3.281250,-0.870926,-1.118147,-0.941618,-0.681703
3.285156,-0.997847,-1.051905,-0.811453,-0.360870
3.289063,-0.951899,-0.917958,-0.541977,-0.293901
3.292969,-0.813334,-0.637855,-0.431613,-0.080353
3.296875,-0.784103,-0.621217,-0.166602,0.073687
3.300781,-0.486060,-0.426307,0.005776,0.147689
3.304688,-0.318549,-0.234846,-0.005004,0.183615
3.308594,-0.230858,-0.171737,0.146567,0.221265
3.312500,-0.231909,-0.120848,-0.004074,0.107850
3.316406,-0.034996,-0.042065,-0.043185,0.045798
3.320313,-0.068819,-0.075200,-0.158354,0.008942
3.324219,-0.081454,-0.166496,-0.229216,-0.056234
3.328125,-0.107265,-0.267318,-0.174088,-0.309142
3.332031,-0.161581,-0.199947,-0.275175,-0.320287
3.335938,-0.177371,-0.300663,-0.408544,-0.318773
3.339844,-0.327226,-0.380285,-0.332567,-0.157072
3.343750,-0.378041,-0.422184,-0.376996,-0.238596
3.347656,-0.390766,-0.271291,-0.238629,-0.250451
3.351563,-0.292674,-0.429411,-0.392610,-0.229955
3.355469,-0.237106,-0.302306,-0.409869,-0.146396
3.359375,-0.411277,-0.450280,-0.356391,-0.246374
3.363281,-0.465229,-0.448717,-0.352522,-0.293867
3.367188,-0.393602,-0.424884,-0.438736,-0.275811
3.371094,-0.521900,-0.573495,-0.374013,-0.321220
3.375000,-0.681028,-0.567433,-0.445394,-0.117533
3.378906,-0.574952,-0.564611,-0.497334,-0.168874
3.382813,-0.719870,-0.514498,-0.367292,0.089339
3.386719,-0.589335,-0.567467,-0.188919,0.150541
3.390625,-0.590517,-0.391256,0.011021,0.331905
3.394531,-0.407869,-0.273961,-0.012785,0.297946
3.398438,-0.441545,-0.013818,0.094755,0.437543
3.402344,-0.271464,0.106460,0.326374,0.431881
3.406250,-0.096081,0.112487,0.206862,0.395127
3.410156,-0.003952,0.053999,0.313201,0.330199
3.414063,0.018433,0.162147,0.120946,0.069126
3.417969,0.039821,0.063831,0.089316,0.134308
3.421875,0.034522,0.034973,-0.157773,-0.173338
3.425781,-0.066196,-0.260575,-0.256958,-0.107500
3.429688,-0.141988,-0.379711,-0.221095,-0.115167
3.433594,-0.405981,-0.299644,-0.338872,-0.173003
3.437500,-0.473384,-0.367357,-0.315518,-0.168474
3.441406,-0.430906,-0.503185,-0.311898,-0.055725
3.445313,-0.573948,-0.580733,-0.366253,-0.053954
3.449219,-0.524768,-0.430139,-0.207498,0.081298
3.453125,-0.505586,-0.446116,-0.317273,0.067131
3.457031,-0.625366,-0.504165,-0.208566,0.157555
3.460938,-0.607788,-0.480394,-0.200033,0.050287
3.464844,-0.776572,-0.540865,-0.115729,0.203523
3.468750,-0.788963,-0.508803,-0.216573,0.307715
3.472656,-0.751794,-0.493289,-0.154945,0.369459
3.476563,-0.712125,-0.489689,0.027384,0.594615
3.480469,-0.856248,-0.263683,0.103426,0.754728
3.484375,-0.676375,-0.144427,0.270121,0.780609
3.488281,-0.625695,-0.010158,0.614218,0.932868
3.492188,-0.471511,0.149186,0.722375,1.172721
3.496094,-0.281718,0.434099,0.999203,1.236025
3.500000,-0.042456,0.595870,1.119172,1.324640
3.503906,0.248836,0.804993,1.221585,1.277806
3.507813,0.381557,0.960028,1.246123,1.303340
3.511719,0.645850,1.004908,1.207800,1.090142
3.515625,0.738219,1.027412,1.094734,1.013676
3.519531,0.891113,0.995166,1.032170,0.749121
3.523438,0.830842,0.883741,0.961965,0.647822
3.527344,0.815258,0.854351,0.724200,0.408436
3.531250,0.720192,0.878503,0.754118,0.321294
3.535156,0.663716,0.672457,0.637270,0.279433
3.539063,0.736441,0.587167,0.565120,0.151623
3.542969,0.636593,0.624736,0.429804,0.151043
3.546875,0.514715,0.589488,0.409938,0.108740
3.550781,0.565525,0.447688,0.384644,0.112480
3.554688,0.597781,0.458159,0.275158,-0.073852
3.558594,0.566112,0.464071,0.123363,-0.071086
3.562500,0.461629,0.363209,0.045920,-0.075877
3.566406,0.400351,0.245816,0.115799,-0.073838
3.570313,0.265617,0.122836,0.049400,-0.204833
3.574219,0.109378,-0.013450,-0.022611,-0.151611
3.578125,0.000762,-0.087333,-0.129096,-0.140198
3.582031,0.063804,-0.011436,-0.035832,0.130008
3.585938,-0.090921,0.048259,0.072666,0.059307
3.589844,-0.042648,0.066377,0.288447,0.375534
3.593750,0.022187,0.331615,0.417023,0.310213
3.597656,0.276012,0.482572,0.590213,0.404573
3.601563,0.268980,0.480994,0.493858,0.497597
3.605469,0.589005,0.654759,0.573490,0.389958
3.609375,0.677712,0.743528,0.535247,0.362043
3.613281,0.739553,0.670010,0.600865,0.177567
3.617188,0.780110,0.649654,0.333053,0.132153
3.621094,0.741627,0.530052,0.351117,0.014795
3.625000,0.520483,0.425275,0.245652,-0.035118
3.628906,0.443063,0.310104,0.188803,-0.160686
3.632813,0.350353,0.297383,-0.033293,-0.247817
3.636719,0.328494,0.134747,-0.030575,-0.235480
3.640625,0.363474,0.089380,0.034582,-0.280877
3.644531,0.383486,0.150237,0.099333,-0.098536
3.648438,0.298001,0.088657,-0.054310,-0.106496
3.652344,0.219109,0.280691,0.070389,-0.166507
3.656250,0.371505,0.177707,-0.027921,-0.199984
3.660156,0.213263,0.212424,-0.052713,-0.116191
3.664063,0.328654,0.164948,-0.012945,-0.210102
3.667969,0.186134,0.039548,-0.141138,-0.266137
3.671875,0.206940,-0.032288,-0.030239,-0.164520
3.675781,0.052186,0.066629,-0.144505,-0.187483
3.679688,0.106150,0.079307,-0.079836,0.016445
3.683594,-0.024963,0.056833,0.136198,0.074391
3.687500,0.174216,0.197597,0.131827,0.068967
3.691406,0.229238,0.251835,0.352356,0.205512
3.695313,0.406651,0.407639,0.354641,0.258730
3.699219,0.579255,0.684604,0.521411,0.191317
3.703125,0.749519,0.629206,0.539065,0.149556
3.707031,0.793518,0.684563,0.510922,0.184397
3.710938,0.975913,0.698873,0.310836,-0.155504
3.714844,1.068108,0.723319,0.267336,-0.230867
3.718750,0.959367,0.617840,0.082463,-0.404397
3.722656,0.816416,0.388953,-0.074899,-0.612684
3.726563,0.661477,0.207473,-0.305878,-0.887112
3.730469,0.596490,-0.026541,-0.425426,-0.949605
3.734375,0.436127,-0.168683,-0.609155,-0.891925
3.738281,0.257672,-0.147034,-0.700924,-0.995987
3.742188,0.180230,-0.276770,-0.722602,-0.973923
3.746094,0.154876,-0.476531,-0.773687,-0.975887
3.750000,0.074353,-0.504716,-0.797987,-1.012319
3.753906,-0.083463,-0.559498,-1.026037,-1.113205
3.757813,-0.121009,-0.682321,-1.030441,-1.074915
3.761719,-0.278337,-0.776084,-1.061200,-0.980974
3.765625,-0.455450,-0.815926,-1.181239,-1.054566
3.769531,-0.566181,-1.056245,-1.185982,-0.969975
3.773438,-0.755969,-1.094679,-1.123617,-0.946948
3.777344,-0.870133,-1.087189,-0.994248,-0.762367
3.781250,-0.990022,-1.148174,-0.984257,-0.619679
3.785156,-1.035823,-1.033191,-0.721806,-0.374254
3.789063,-0.845786,-0.841660,-0.620943,-0.121519
3.792969,-0.929319,-0.754910,-0.462333,-0.008747
3.796875,-0.671901,-0.571901,-0.241035,0.163558
3.800781,-0.633739,-0.408476,-0.006932,0.286343
3.804688,-0.457049,-0.228324,-0.080520,0.263737
3.808594,-0.321019,-0.060637,0.055589,0.291309
3.812500,-0.172280,-0.011883,0.104252,0.169587
3.816406,-0.159326,-0.043570,-0.028738,-0.002308
3.820313,-0.095632,-0.135206,-0.054276,-0.100421
3.824219,-0.017445,-0.115054,-0.247753,-0.184618
3.828125,-0.063269,-0.186336,-0.179563,-0.204461
3.832031,-0.129621,-0.273946,-0.391038,-0.190660
3.835938,-0.214689,-0.285221,-0.350474,-0.250842
3.839844,-0.223245,-0.388625,-0.293813,-0.286091
3.843750,-0.258154,-0.362406,-0.396549,-0.124634
3.847656,-0.239391,-0.409260,-0.358401,-0.148633
3.851563,-0.329484,-0.269221,-0.391829,-0.282178
3.855469,-0.280819,-0.315546,-0.286796,-0.150197
3.859375,-0.387178,-0.398973,-0.446728,-0.154538
3.863281,-0.407600,-0.521653,-0.463882,-0.178827
3.867188,-0.411835,-0.403181,-0.416409,-0.314154
3.871094,-0.616874,-0.516334,-0.439505,-0.288866
3.875000,-0.685896,-0.500713,-0.500620,-0.225355
3.878906,-0.628190,-0.617886,-0.405816,-0.088711
3.882813,-0.691088,-0.571679,-0.384168,0.111208
3.886719,-0.696434,-0.446780,-0.227705,0.242404
3.890625,-0.580559,-0.354680,-0.074121,0.373164
3.894531,-0.533556,-0.201728,0.149496,0.421357
3.898438,-0.373295,-0.002021,0.217237,0.433020
3.902344,-0.132747,0.010388,0.302050,0.394078
3.906250,-0.104582,0.073721,0.193885,0.287612
3.910156,0.082523,0.188503,0.327048,0.238374
3.914063,0.032015,0.074387,0.227195,0.183967
3.917969,0.081000,-0.037404,0.022500,-0.026507
3.921875,0.032939,0.002561,-0.030118,-0.132400
3.925781,-0.160150,-0.205072,-0.140427,-0.131338
3.929688,-0.155783,-0.250157,-0.232460,-0.196393
3.933594,-0.252193,-0.454334,-0.268662,-0.272358
3.937500,-0.347902,-0.478229,-0.413129,-0.148504
3.941406,-0.511350,-0.453637,-0.262340,-0.128461
3.945313,-0.468776,-0.390064,-0.375650,0.036062
3.949219,-0.587907,-0.527220,-0.215420,0.080784
3.953125,-0.513267,-0.444889,-0.146680,0.141326
3.957031,-0.635711,-0.476485,-0.265645,0.093056
3.960938,-0.705420,-0.472470,-0.088843,0.076368
3.964844,-0.659557,-0.533332,-0.252211,0.284419
3.968750,-0.792373,-0.565743,-0.146173,0.239098
3.972656,-0.868419,-0.530935,-0.058771,0.328899
3.976563,-0.762477,-0.398475,0.010543,0.489042
3.980469,-0.880057,-0.377689,0.192503,0.726434
3.984375,-0.735443,-0.264749,0.290783,0.881042
3.988281,-0.672925,-0.028323,0.592098,0.995620
3.992188,-0.530034,0.120812,0.874890,1.175180
3.996094,-0.330014,0.363941,0.906083,1.346816
4.000000,-0.011191,0.678344,1.087248,1.425502
4.003906,0.235858,0.853709,1.269184,1.257174
4.007813,0.526540,0.927969,1.343025,1.318039
4.011719,0.648548,0.968335,1.337899,1.052638
4.015625,0.698877,1.081799,1.185354,0.965113
4.019531,0.711841,1.144267,1.000141,0.845195
4.023438,0.814109,0.990502,0.885728,0.634874
4.027344,0.715936,0.836986,0.832097,0.495412
4.031250,0.775100,0.876289,0.638594,0.411115
4.035156,0.619239,0.716200,0.616427,0.268409
4.039063,0.614518,0.584694,0.529396,0.165101
4.042969,0.698304,0.629400,0.361189,0.247072
4.046875,0.501482,0.637023,0.468343,0.101631
4.050781,0.665665,0.504794,0.324501,0.120332
4.054688,0.484441,0.532393,0.323261,0.091274
4.058594,0.474561,0.410081,0.284672,-0.026442
4.062500,0.453786,0.310264,0.076464,-0.203022
4.066406,0.315075,0.286082,0.032154,-0.113874
4.070313,0.171070,0.185427,0.028767,-0.260532
4.074219,0.193731,0.091765,-0.089840,-0.174195
4.078125,0.051721,-0.041958,-0.124791,-0.020100
4.082031,-0.113231,0.032029,0.086228,0.050915
4.085938,-0.134373,0.125286,0.128215,0.090138
4.089844,0.050346,0.144626,0.211270,0.294240
4.093750,0.124829,0.327641,0.462009,0.480027
4.097656,0.313396,0.338181,0.483068,0.531025
4.101563,0.418877,0.547770,0.616793,0.428898
4.105469,0.549973,0.669131,0.562094,0.545540
4.109375,0.521833,0.673635,0.675581,0.335899
4.113281,0.715697,0.705734,0.488730,0.155565
4.117188,0.728676,0.627842,0.489402,0.060029
4.121094,0.712059,0.585445,0.369604,-0.039502
4.125000,0.625147,0.402403,0.228078,-0.169367
4.128906,0.606023,0.367797,0.116590,-0.227867
4.132813,0.466687,0.340786,-0.033211,-0.302072
4.136719,0.350494,0.312613,-0.037850,-0.179211
4.140625,0.349331,0.279274,0.031975,-0.163629
4.144531,0.376847,0.181514,-0.023085,-0.251787
4.148438,0.225254,0.247667,0.024428,-0.216238
4.152344,0.395936,0.183398,0.024385,-0.064121
4.156250,0.393299,0.257517,0.076277,-0.151516
4.160156,0.204357,0.103663,-0.060999,-0.224256
4.164063,0.266958,0.136633,-0.071560,-0.182751
4.167969,0.174705,0.069012,-0.004191,-0.305879
4.171875,0.059837,-0.001319,-0.012742,-0.134254
4.175781,-0.001533,-0.059151,-0.056893,-0.099874
4.179688,0.160667,0.025154,-0.088016,-0.036156
4.183594,0.017876,0.081101,0.103183,0.006965
4.187500,0.185253,0.205602,0.175375,0.079276
4.191406,0.223872,0.410879,0.361332,0.314057
4.195313,0.422596,0.410272,0.373145,0.234091
4.199219,0.633416,0.620180,0.405422,0.357367
4.203125,0.728584,0.649104,0.543045,0.284968
4.207031,0.766579,0.769500,0.531058,0.194277
4.210938,1.007928,0.764404,0.457402,0.001871
4.214844,1.025418,0.609836,0.336589,-0.160990
4.218750,1.001230,0.604767,-0.016220,-0.556121
4.222656,0.782082,0.424362,-0.123620,-0.566910
4.226563,0.710568,0.289668,-0.259323,-0.739279
4.230469,0.685525,0.144128,-0.404593,-0.959980
4.234375,0.491470,-0.033626,-0.537083,-0.919610
4.238281,0.297030,-0.166213,-0.704243,-1.018934
4.242188,0.178447,-0.300549,-0.830066,-0.947820
4.246094,0.015132,-0.331154,-0.933551,-1.049147
4.250000,-0.075614,-0.532336,-0.850659,-0.977129
4.253906,-0.017014,-0.592143,-0.960122,-0.991119
4.257813,-0.105527,-0.698087,-0.928552,-1.127880
4.261719,-0.341280,-0.872428,-1.011992,-1.107422
4.265625,-0.477635,-0.946372,-1.072886,-1.035616
4.269531,-0.611474,-0.931737,-1.107995,-0.909756
4.273438,-0.713975,-1.146603,-1.060759,-0.968349
4.277344,-0.898971,-1.000532,-1.124784,-0.753183
4.281250,-0.922164,-1.021563,-0.873585,-0.656627
4.285156,-0.964250,-0.937012,-0.825263,-0.369195
4.289063,-0.839093,-0.952593,-0.533513,-0.185981
4.292969,-0.932919,-0.659567,-0.380857,0.052409
4.296875,-0.800896,-0.507491,-0.263992,0.113611
4.300781,-0.527893,-0.354770,-0.142612,0.264554
4.304688,-0.309305,-0.306875,-0.084341,0.244165
4.308594,-0.166913,-0.134494,0.085056,0.146022
4.312500,-0.055387,-0.104637,0.097730,0.216782
4.316406,-0.163306,-0.013663,-0.049654,-0.001624
4.320313,-0.129740,-0.120914,-0.087353,-0.115010
4.324219,-0.044278,-0.159197,-0.241203,-0.248603
4.328125,-0.178633,-0.307227,-0.287200,-0.260909
4.332031,-0.134354,-0.225103,-0.326958,-0.190886
4.335938,-0.272523,-0.356721,-0.255185,-0.172885
4.339844,-0.200630,-0.354603,-0.394499,-0.248521
4.343750,-0.270521,-0.323973,-0.301849,-0.220906
4.347656,-0.370128,-0.255810,-0.205032,-0.146206
4.351563,-0.335155,-0.432573,-0.297905,-0.226850
4.355469,-0.395560,-0.261863,-0.243360,-0.236129
4.359375,-0.389959,-0.421598,-0.358567,-0.237318
4.363281,-0.427385,-0.439581,-0.457799,-0.181870
4.367188,-0.459317,-0.487495,-0.532745,-0.191645
4.371094,-0.441962,-0.552771,-0.474147,-0.282545
4.375000,-0.660374,-0.527167,-0.480925,-0.141999
4.378906,-0.608752,-0.524658,-0.354480,-0.153552
4.382813,-0.635948,-0.613698,-0.406761,0.059989
4.386719,-0.668107,-0.569471,-0.133400,0.250346
4.390625,-0.520204,-0.321177,0.032329,0.291453
4.394531,-0.406164,-0.155398,0.062996,0.469448
4.398438,-0.262513,-0.102401,0.099004,0.459039
4.402344,-0.167314,-0.045480,0.239941,0.510901
4.406250,-0.070597,0.186756,0.244030,0.423903
4.410156,0.001895,0.051313,0.167958,0.294123
4.414063,0.119530,0.135719,0.185348,0.174132
4.417969,-0.028292,-0.016659,-0.013109,-0.053318
4.421875,-0.071729,-0.148153,-0.005244,-0.000654
4.425781,-0.085574,-0.149111,-0.125979,-0.222430
4.429688,-0.248474,-0.293724,-0.316490,-0.300614
4.433594,-0.378871,-0.428941,-0.351509,-0.270795
4.437500,-0.531371,-0.478286,-0.418286,-0.259877
4.441406,-0.476281,-0.499023,-0.418986,-0.048461
4.445313,-0.619169,-0.514311,-0.326228,-0.021006
4.449219,-0.513768,-0.544734,-0.323005,0.045482
4.453125,-0.684622,-0.499122,-0.327381,-0.028540
4.457031,-0.681762,-0.563200,-0.110984,0.105448
4.460938,-0.608836,-0.563362,-0.120936,0.094401
4.464844,-0.648075,-0.554246,-0.167747,0.244621
4.468750,-0.715772,-0.434808,-0.054569,0.316672
4.472656,-0.828363,-0.425892,-0.039304,0.450262
4.476563,-0.818137,-0.409722,-0.015440,0.516410
4.480469,-0.739442,-0.291736,0.091399,0.735518
4.484375,-0.771372,-0.118207,0.384670,0.949483
4.488281,-0.694856,-0.034078,0.563099,0.992718
4.492188,-0.349794,0.198988,0.723126,1.262563
4.496094,-0.276806,0.413892,0.908454,1.212685
4.500000,0.026563,0.633736,1.117476,1.304259
4.503906,0.169144,0.887907,1.327831,1.288310
4.507813,0.510217,0.982533,1.354117,1.159376
4.511719,0.678243,1.058466,1.142211,1.054531
4.515625,0.778480,1.153651,1.246393,0.958830
4.519531,0.846179,0.982077,0.944633,0.696658
4.523438,0.841497,1.019253,0.973029,0.640290
4.527344,0.819207,0.911209,0.813972,0.421919
4.531250,0.767931,0.893553,0.694832,0.438619
4.535156,0.751647,0.784018,0.647191,0.289170
4.539063,0.687539,0.666809,0.480796,0.173796
4.542969,0.615603,0.599060,0.385112,0.114161
4.546875,0.678511,0.585681,0.388060,0.230023
4.550781,0.479030,0.515800,0.312613,-0.004594
4.554688,0.562376,0.557725,0.261060,0.100207
4.558594,0.419191,0.354748,0.257698,0.038066
4.562500,0.383122,0.216869,0.193757,-0.183372
4.566406,0.397450,0.212455,-0.058477,-0.145981
4.570313,0.291430,0.041336,-0.096324,-0.222330
4.574219,0.206118,-0.039429,-0.132138,-0.085999
4.578125,0.028143,0.065131,0.016141,-0.041719
4.582031,-0.112747,-0.043853,0.077229,0.124603
4.585938,-0.103978,0.067712,0.070410,0.240012
4.589844,-0.044386,0.153641,0.303393,0.256614
4.593750,0.112116,0.168569,0.382748,0.467190
4.597656,0.290057,0.447920,0.419087,0.538253
4.601563,0.397394,0.473125,0.637772,0.402506
4.605469,0.536170,0.636304,0.700271,0.542564
4.609375,0.673887,0.584467,0.690574,0.420164
4.613281,0.756788,0.727611,0.476707,0.300243
4.617188,0.669131,0.542882,0.460657,0.019604
4.621094,0.700726,0.638250,0.254169,0.058485
4.625000,0.546513,0.357926,0.292381,-0.054733
4.628906,0.447741,0.326758,0.113207,-0.176471
4.632813,0.463021,0.191996,-0.003239,-0.123724
4.636719,0.450046,0.237593,-0.022864,-0.268727
4.640625,0.394798,0.174467,0.057127,-0.123041
4.644531,0.222621,0.168843,-0.010152,-0.073094
4.648438,0.298117,0.249610,0.022414,-0.064711
4.652344,0.394825,0.149210,0.076722,-0.211499
4.656250,0.366261,0.241078,0.102364,-0.073733
4.660156,0.211869,0.142749,-0.066333,-0.156631
4.664063,0.169277,0.104832,-0.121223,-0.299023
4.667969,0.257783,0.087445,-0.030280,-0.212228
4.671875,0.043916,-0.028274,-0.187379,-0.288250
4.675781,0.055724,-0.006766,-0.102193,-0.179142
4.679688,-0.016923,0.097172,-0.062625,0.018944
4.683594,0.050841,0.155459,0.073749,0.113299
4.687500,0.112282,0.223545,0.154426,0.196135
4.691406,0.285485,0.322241,0.253134,0.154435
4.695313,0.380568,0.468566,0.503596,0.333568
4.699219,0.601217,0.611639,0.450959,0.280242
4.703125,0.731817,0.627871,0.511651,0.205028
4.707031,0.893110,0.808752,0.587219,0.101309
4.710938,1.005588,0.727721,0.467289,-0.122777
4.714844,0.921349,0.704600,0.187680,-0.318115
4.718750,1.029242,0.514150,0.033057,-0.382819
4.722656,0.890189,0.353803,-0.051804,-0.554852
4.726563,0.693260,0.202206,-0.339295,-0.782004
4.730469,0.591507,0.052215,-0.565587,-0.920688
4.734375,0.541311,-0.085238,-0.708632,-0.945712
4.738281,0.292566,-0.248972,-0.744435,-0.961345
4.742188,0.171423,-0.370009,-0.798246,-0.948353
4.746094,0.113276,-0.459344,-0.880502,-1.000963
4.750000,0.082506,-0.532735,-0.869256,-0.995493
4.753906,-0.026726,-0.519111,-1.031997,-1.068795
4.757813,-0.197268,-0.691754,-0.900298,-1.143822
4.761719,-0.402685,-0.877059,-0.974522,-1.037618
4.765625,-0.543145,-0.854605,-1.147935,-0.990325
4.769531,-0.550095,-1.044984,-1.095608,-0.918366
4.773438,-0.784822,-0.995038,-1.072129,-0.846500
4.777344,-0.864640,-1.068948,-1.026444,-0.692511
4.781250,-0.874453,-1.131049,-1.033700,-0.653097
4.785156,-0.934003,-1.091754,-0.718760,-0.350855
4.789063,-0.921026,-0.909009,-0.593073,-0.289607
4.792969,-0.797962,-0.696720,-0.470861,-0.114819
4.796875,-0.802544,-0.608055,-0.233845,0.194001
4.800781,-0.507851,-0.380961,-0.041092,0.305609
4.804688,-0.454890,-0.181658,-0.018831,0.136460
4.808594,-0.144327,-0.133652,0.049111,0.140968
4.812500,-0.106751,-0.120331,-0.039768,0.107135
4.816406,-0.146820,-0.119880,0.010124,0.064267
4.820313,-0.088462,-0.078849,-0.004983,-0.085262
4.824219,0.006765,-0.141155,-0.268187,-0.111225
4.828125,-0.172943,-0.185922,-0.325048,-0.298442
4.832031,-0.153917,-0.225021,-0.307449,-0.179985
4.835938,-0.245039,-0.407949,-0.283302,-0.285202
4.839844,-0.313050,-0.262195,-0.403088,-0.273295
4.843750,-0.330234,-0.319147,-0.336043,-0.199538
4.847656,-0.370865,-0.342757,-0.295586,-0.109803
4.851563,-0.357456,-0.352653,-0.253122,-0.147291
4.855469,-0.381697,-0.274176,-0.342635,-0.275028
4.859375,-0.402498,-0.340701,-0.320156,-0.242380
4.863281,-0.283259,-0.478636,-0.419990,-0.180795
4.867188,-0.531005,-0.589773,-0.404475,-0.219401
4.871094,-0.522350,-0.533469,-0.436057,-0.203510
4.875000,-0.516356,-0.588683,-0.479808,-0.233793
4.878906,-0.702817,-0.642511,-0.403568,-0.107439
4.882813,-0.757610,-0.573528,-0.362861,0.030818
4.886719,-0.615952,-0.530745,-0.193007,0.090176
4.890625,-0.701324,-0.304980,-0.024097,0.332589
4.894531,-0.436522,-0.193910,0.143916,0.308944
4.898438,-0.391205,-0.172051,0.289022,0.496876
4.902344,-0.255887,0.018768,0.265686,0.480572
4.906250,-0.172764,0.182766,0.366369,0.293738
4.910156,-0.084000,0.179763,0.209366,0.205153
4.914063,0.011832,0.116484,0.115091,0.089092
4.917969,0.059396,0.082603,0.030325,0.098183
4.921875,-0.081664,-0.001506,-0.147732,-0.038005
4.925781,-0.048119,-0.249249,-0.174729,-0.092682
4.929688,-0.316004,-0.274808,-0.239386,-0.256193
4.933594,-0.318211,-0.400265,-0.289057,-0.139062
4.937500,-0.409300,-0.519849,-0.306090,-0.210470
4.941406,-0.424028,-0.479113,-0.418750,-0.185047
4.945313,-0.615162,-0.566549,-0.291758,0.015649
4.949219,-0.498588,-0.415503,-0.169775,0.042203
4.953125,-0.503915,-0.430374,-0.286409,0.033036
4.957031,-0.657050,-0.384174,-0.298251,0.060940
4.960938,-0.559681,-0.566620,-0.099176,0.191335
4.964844,-0.621029,-0.581110,-0.166697,0.268243
4.968750,-0.721100,-0.518458,-0.132078,0.212521
4.972656,-0.788701,-0.465977,-0.055820,0.347695
4.976563,-0.902270,-0.424666,0.056855,0.486515
4.980469,-0.846509,-0.263930,0.235538,0.599942
4.984375,-0.833119,-0.190377,0.401470,0.777454
4.988281,-0.691233,0.047500,0.645564,1.108270
4.992188,-0.489996,0.239186,0.869433,1.211587
4.996094,-0.199240,0.370375,0.921225,1.260420
5.000000,-0.084324,0.554570,1.185989,1.397435
5.003906,0.223213,0.765487,1.216505,1.255313
5.007813,0.446609,1.018545,1.210318,1.336676
5.011719,0.602079,1.124046,1.296844,1.095749
5.015625,0.793580,1.012706,1.169084,1.045187
5.019531,0.886265,0.949527,1.003864,0.692714
5.023438,0.781487,0.915394,0.812878,0.685912
5.027344,0.815874,0.884661,0.708870,0.389648
5.031250,0.825622,0.858315,0.615187,0.460176
5.035156,0.752630,0.746995,0.608270,0.275885
5.039063,0.607936,0.656381,0.517856,0.289718
5.042969,0.700425,0.565357,0.510445,0.274739
5.046875,0.551304,0.536647,0.380167,0.072477
5.050781,0.613449,0.465445,0.312261,0.058527
5.054688,0.557397,0.555527,0.243505,-0.014129
5.058594,0.519511,0.317707,0.179397,-0.036703
5.062500,0.427550,0.265209,0.149328,-0.173701
5.066406,0.431070,0.158181,0.024450,-0.069470
5.070313,0.166843,0.072199,-0.018059,-0.201569
5.074219,0.059427,0.027938,-0.063423,-0.109036
5.078125,0.037849,0.061883,-0.008653,-0.142273
5.082031,-0.002988,-0.045288,-0.059756,0.092607
5.085938,-0.004596,0.029384,0.171174,0.125847
5.089844,-0.052091,0.204405,0.213061,0.205323
5.093750,0.091717,0.287364,0.382305,0.305127
5.097656,0.207784,0.451827,0.476888,0.376916
5.101563,0.340074,0.567762,0.563243,0.481871
5.105469,0.515197,0.729478,0.659475,0.379322
5.109375,0.559398,0.764227,0.530819,0.374438
5.113281,0.625810,0.591072,0.513427,0.301598
5.117188,0.787865,0.596073,0.349625,0.110251
5.121094,0.638785,0.573497,0.263407,0.039029
5.125000,0.603345,0.362437,0.103500,-0.166510
5.128906,0.520572,0.386745,0.149533,-0.243252
5.132813,0.454735,0.236420,0.000523,-0.192611
5.136719,0.380909,0.195351,-0.025805,-0.154016
5.140625,0.283710,0.174245,-0.060271,-0.171728
5.144531,0.296124,0.208442,0.035306,-0.099139
5.148438,0.328593,0.258875,0.078860,-0.209969
5.152344,0.391463,0.121642,0.109494,-0.176704
5.156250,0.234627,0.229357,-0.069080,-0.249276
5.160156,0.329725,0.221550,0.010612,-0.249777
5.164063,0.259113,0.194114,0.007024,-0.220735
5.167969,0.233946,0.124872,-0.128107,-0.117531
5.171875,0.236840,-0.036600,-0.169615,-0.208188
5.175781,0.184002,-0.028939,-0.060638,-0.167773
5.179688,0.111229,-0.046524,-0.029841,-0.125286
5.183594,0.150370,0.041211,0.022173,-0.026015
5.187500,0.107077,0.197006,0.118748,0.101511
5.191406,0.172751,0.232995,0.287221,0.169687
5.195313,0.378838,0.560491,0.378106,0.317539
5.199219,0.571023,0.625966,0.406098,0.202717
5.203125,0.732861,0.681926,0.457689,0.319455
5.207031,0.759801,0.727791,0.398077,0.199405
5.210938,1.008212,0.666731,0.334747,-0.110737
5.214844,0.995459,0.695743,0.208262,-0.334004
5.218750,0.977758,0.489454,0.024577,-0.371008
5.222656,0.899542,0.432548,-0.176987,-0.741711
5.226563,0.722603,0.320263,-0.386305,-0.745616
5.230469,0.581623,0.071420,-0.450208,-0.881497
5.234375,0.503299,-0.120920,-0.557397,-0.892664
5.238281,0.237573,-0.238744,-0.805969,-1.080746
5.242188,0.221140,-0.318011,-0.727124,-0.991581
5.246094,0.188579,-0.428748,-0.737091,-0.991363
5.250000,0.063767,-0.479551,-0.932752,-0.983978
5.253906,-0.044805,-0.681960,-1.023973,-1.028066
5.257813,-0.140495,-0.674444,-0.918917,-1.070190
5.261719,-0.288639,-0.696132,-1.004000,-1.148089
5.265625,-0.391153,-0.905871,-1.168428,-1.095490
5.269531,-0.538259,-0.946571,-1.036571,-0.905138
5.273438,-0.748690,-1.138154,-1.100639,-0.963590
5.277344,-0.825615,-1.078861,-0.996741,-0.855772
5.281250,-0.879094,-1.103332,-0.917242,-0.658928
5.285156,-1.024926,-0.980296,-0.802004,-0.398342
5.289063,-0.961580,-0.785484,-0.556390,-0.170476
5.292969,-0.835419,-0.653431,-0.436644,0.059327
5.296875,-0.665714,-0.550949,-0.323077,0.176663
5.300781,-0.489652,-0.327272,-0.183841,0.141051
5.304688,-0.472318,-0.187672,0.079427,0.311845
5.308594,-0.260203,-0.032586,0.108654,0.295606
5.312500,-0.057595,0.036515,0.057959,0.207599
5.316406,-0.027903,0.006885,0.070482,0.099538
5.320313,-0.081256,0.011844,-0.180028,-0.094355
5.324219,-0.106145,-0.119622,-0.168586,-0.241136
5.328125,-0.146608,-0.244125,-0.332258,-0.153004
5.332031,-0.170641,-0.185856,-0.381997,-0.213234
5.335938,-0.319333,-0.387818,-0.305963,-0.194663
5.339844,-0.260128,-0.393734,-0.287773,-0.276864
5.343750,-0.238197,-0.311918,-0.217715,-0.232636
5.347656,-0.346564,-0.416824,-0.278810,-0.184674
5.351563,-0.252120,-0.280057,-0.332309,-0.190135
5.355469,-0.215748,-0.350828,-0.275090,-0.168441
5.359375,-0.242054,-0.346235,-0.390897,-0.277557
5.363281,-0.366491,-0.533043,-0.322914,-0.194833
5.367188,-0.411560,-0.448288,-0.517277,-0.222914
5.371094,-0.581332,-0.534285,-0.451331,-0.311141
5.375000,-0.670973,-0.681319,-0.466008,-0.196947
5.378906,-0.676640,-0.639695,-0.450187,-0.130497
5.382813,-0.597872,-0.549741,-0.225549,0.077807
5.386719,-0.691503,-0.495942,-0.211459,0.223334
5.390625,-0.700111,-0.280841,-0.113954,0.266428
5.394531,-0.463860,-0.219393,0.019827,0.385026
5.398438,-0.438968,-0.065503,0.231711,0.527559
5.402344,-0.311389,-0.036883,0.306272,0.430709
5.406250,-0.047165,0.031995,0.253571,0.313282
5.410156,0.035145,0.093863,0.293774,0.256400
5.414063,0.105317,0.071780,0.179563,0.255911
5.417969,0.084769,0.078703,0.083963,0.024554
5.421875,0.005521,-0.142276,-0.107728,-0.007335
5.425781,-0.068506,-0.160355,-0.141065,-0.109636
5.429688,-0.267994,-0.339133,-0.284688,-0.114479
5.433594,-0.325807,-0.440830,-0.415449,-0.195957
5.437500,-0.417489,-0.444716,-0.304671,-0.117910
5.441406,-0.490845,-0.568328,-0.336146,-0.152975
5.445313,-0.511933,-0.438842,-0.260135,-0.098081
5.449219,-0.581351,-0.547462,-0.367610,0.095316
5.453125,-0.561432,-0.433594,-0.320384,-0.026792
5.457031,-0.679328,-0.470846,-0.271396,0.186223
5.460938,-0.548207,-0.555062,-0.107127,0.150354
5.464844,-0.756923,-0.556988,-0.194385,0.256530
5.468750,-0.764591,-0.419071,-0.048915,0.248532
5.472656,-0.782844,-0.579445,-0.146931,0.425359
5.476563,-0.810690,-0.338578,0.089914,0.419873
5.480469,-0.885868,-0.390869,0.237456,0.683246
5.484375,-0.691869,-0.226345,0.299908,0.930949
5.488281,-0.542752,-0.012655,0.597993,1.069275
5.492188,-0.543157,0.158215,0.718901,1.233592
5.496094,-0.233084,0.380174,1.029039,1.284655
5.500000,0.093500,0.637484,1.095170,1.284001
5.503906,0.273861,0.854765,1.234297,1.371546
5.507813,0.401144,1.004104,1.230865,1.277126
5.511719,0.718822,1.073448,1.290147,1.205834
5.515625,0.817530,1.173042,1.150033,1.014438
5.519531,0.720048,0.963855,0.950521,0.726766
5.523438,0.872529,0.993982,0.914171,0.579518
5.527344,0.678099,0.931492,0.801909,0.444491
5.531250,0.668399,0.727482,0.594153,0.302504
5.535156,0.643456,0.777802,0.668773,0.266024
5.539063,0.611556,0.684025,0.594491,0.303674
5.542969,0.601984,0.693535,0.448296,0.193783
5.546875,0.558825,0.613472,0.358045,0.111791
5.550781,0.616021,0.508773,0.316638,0.029828
5.554688,0.607982,0.450080,0.205075,0.008320
5.558594,0.456715,0.482166,0.184450,-0.115212
5.562500,0.514436,0.283868,0.053602,-0.147899
5.566406,0.279415,0.200092,0.064207,-0.111889
5.570313,0.229479,0.097135,0.037106,-0.212250
5.574219,0.042948,-0.023858,-0.136342,-0.182832
5.578125,0.032596,-0.095135,0.042878,-0.124107
5.582031,-0.027477,-0.033241,-0.002371,0.003142
5.585938,-0.007363,0.047163,0.124038,0.105145
5.589844,0.012489,0.183320,0.305958,0.200197
5.593750,0.130423,0.238019,0.433650,0.401513
5.597656,0.277524,0.321809,0.556092,0.425861
5.601563,0.454721,0.523582,0.610448,0.575728
5.605469,0.569274,0.640489,0.587784,0.532855
5.609375,0.638152,0.686996,0.570240,0.405086
5.613281,0.685696,0.716321,0.533826,0.159897
5.617188,0.715005,0.600896,0.384617,0.099666
5.621094,0.655454,0.570366,0.226585,0.057822
5.625000,0.584928,0.533171,0.109300,-0.045879
5.628906,0.590240,0.363969,0.022355,-0.137596
5.632813,0.436747,0.255048,0.099207,-0.194457
5.636719,0.360910,0.145355,-0.012375,-0.169431
5.640625,0.338392,0.116778,-0.026641,-0.237160
5.644531,0.295629,0.108505,0.004961,-0.082992
5.648438,0.349234,0.246490,0.021676,-0.094004
5.652344,0.314607,0.101653,0.109258,-0.186244
5.656250,0.214595,0.223477,-0.026763,-0.076293
5.660156,0.377383,0.192173,0.060510,-0.277332
5.664063,0.266653,0.197151,-0.108307,-0.207474
5.667969,0.180593,0.151516,-0.146372,-0.158007
5.671875,0.112660,0.072632,-0.157762,-0.252809
5.675781,0.116854,-0.090803,-0.166713,-0.190929
5.679688,0.082434,0.084049,0.047389,-0.027634
5.683594,-0.018986,0.004073,-0.018543,0.092546
5.687500,0.057893,0.113219,0.165494,0.120635
5.691406,0.149180,0.247353,0.229130,0.299457
5.695313,0.443112,0.399009,0.420545,0.311676
5.699219,0.557880,0.609053,0.566400,0.322254
5.703125,0.671437,0.771451,0.494055,0.265796
5.707031,0.938074,0.775649,0.547740,0.022578
5.710938,0.863134,0.818560,0.409665,-0.163325
5.714844,1.054684,0.674945,0.333509,-0.303392
5.718750,0.884069,0.617035,0.030814,-0.392844
5.722656,0.908666,0.321046,-0.171871,-0.613620
5.726563,0.825030,0.148376,-0.327526,-0.746085
5.730469,0.518281,0.056582,-0.391968,-0.866156
5.734375,0.528827,0.001295,-0.573756,-0.991804
5.738281,0.387645,-0.159815,-0.661358,-0.977026
5.742188,0.253419,-0.385674,-0.775908,-1.035778
5.746094,0.022269,-0.498196,-0.750686,-1.127048
5.750000,-0.037856,-0.405711,-0.865773,-1.134296
5.753906,-0.046349,-0.508852,-1.015356,-1.108237
5.757813,-0.285631,-0.611726,-0.993931,-1.046356
5.761719,-0.232054,-0.805254,-1.104760,-1.154935
5.765625,-0.362256,-0.795324,-1.107267,-1.092207
5.769531,-0.632533,-1.064350,-1.196950,-0.990517
5.773438,-0.842532,-1.043753,-1.068708,-0.911728
5.777344,-0.850227,-1.005815,-1.155373,-0.754175
5.781250,-0.951481,-1.038054,-1.048156,-0.517797
5.785156,-0.999579,-1.055002,-0.796872,-0.483198
5.789063,-0.968861,-0.840901,-0.707355,-0.277440
5.792969,-0.906878,-0.791828,-0.383760,-0.045888
5.796875,-0.657775,-0.492047,-0.276660,0.203394
5.800781,-0.625209,-0.286724,-0.094364,0.306801
5.804688,-0.438208,-0.226037,-0.023764,0.276758
5.808594,-0.241328,-0.123786,0.127563,0.131644
5.812500,-0.051112,-0.117661,-0.014476,0.147394
5.816406,-0.000224,-0.139741,0.051921,-0.026875
5.820313,0.014084,-0.165110,-0.120186,-0.043827
5.824219,-0.020472,-0.174687,-0.133431,-0.119267
5.828125,-0.110967,-0.268258,-0.230272,-0.263168
5.832031,-0.161282,-0.286545,-0.224874,-0.327053
5.835938,-0.236000,-0.303939,-0.407440,-0.164452
5.839844,-0.330226,-0.385211,-0.343383,-0.293024
5.843750,-0.299650,-0.443080,-0.348371,-0.277730
5.847656,-0.351706,-0.278180,-0.203604,-0.261934
5.851563,-0.355741,-0.288373,-0.275030,-0.150919
5.855469,-0.220664,-0.253339,-0.332661,-0.201241
5.859375,-0.288249,-0.307663,-0.383438,-0.187053
5.863281,-0.306617,-0.467573,-0.427827,-0.322690
5.867188,-0.507762,-0.417343,-0.406094,-0.195842
5.871094,-0.479795,-0.581218,-0.461332,-0.261609
5.875000,-0.635881,-0.674134,-0.407683,-0.154575
5.878906,-0.754855,-0.669284,-0.346688,-0.112153
5.882813,-0.729286,-0.484186,-0.216033,0.007192
5.886719,-0.595417,-0.472218,-0.177885,0.187291
5.890625,-0.531341,-0.292019,-0.012103,0.268190
5.894531,-0.420729,-0.163957,0.116411,0.456135
5.898438,-0.326325,-0.110916,0.135082,0.456177
5.902344,-0.231398,0.003089,0.191651,0.335105
5.906250,-0.054810,0.174420,0.213622,0.363357
5.910156,0.077130,0.073410,0.255894,0.335792
5.914063,0.078021,0.077303,0.171559,0.259329
5.917969,0.039854,0.124271,-0.030803,-0.042245
5.921875,-0.055552,-0.099651,-0.053124,-0.105335
5.925781,-0.065115,-0.180147,-0.099901,-0.223373
5.929688,-0.239655,-0.316800,-0.228044,-0.179012
5.933594,-0.307874,-0.358701,-0.348314,-0.294991
5.937500,-0.415149,-0.545083,-0.406367,-0.225181
5.941406,-0.584407,-0.415275,-0.276734,-0.125572
5.945313,-0.597770,-0.557605,-0.331156,0.041863
5.949219,-0.589117,-0.558073,-0.287501,-0.067172
5.953125,-0.662692,-0.457514,-0.239678,0.042058
5.957031,-0.515517,-0.423886,-0.232776,0.166114
5.960938,-0.685478,-0.457465,-0.226903,0.218623
5.964844,-0.670584,-0.443327,-0.252738,0.112079
5.968750,-0.729690,-0.454670,-0.198877,0.211652
5.972656,-0.806008,-0.572194,-0.051649,0.297697
5.976563,-0.898973,-0.400949,0.036927,0.510436
5.980469,-0.819309,-0.421271,0.252788,0.751804
5.984375,-0.775787,-0.194926,0.360205,0.882977
5.988281,-0.711904,-0.014636,0.554498,0.970562
5.992188,-0.538473,0.201170,0.819239,1.146548
5.996094,-0.291172,0.323879,0.906308,1.255569
6.000000,0.074505,0.565635,1.047588,1.410456
6.003906,0.158652,0.785537,1.229741,1.269733
6.007813,0.506644,1.023821,1.349578,1.330382
6.011719,0.653249,1.084738,1.197328,1.113090
6.015625,0.789055,1.089264,1.208060,0.946000
6.019531,0.701243,1.018298,0.981311,0.755615
6.023438,0.804830,0.933474,0.833243,0.673905
6.027344,0.728873,0.874849,0.744528,0.527150
6.031250,0.687893,0.803932,0.694004,0.413012
6.035156,0.692244,0.714041,0.620970,0.341701
6.039063,0.683572,0.753729,0.465323,0.157196
6.042969,0.674985,0.570200,0.497714,0.284774
6.046875,0.613232,0.539087,0.417373,0.051026
6.050781,0.662271,0.440365,0.269697,0.151848
6.054688,0.531885,0.419159,0.243031,-0.065635
6.058594,0.470499,0.416800,0.181500,-0.017129
6.062500,0.419892,0.386549,0.019373,-0.133989
6.066406,0.414323,0.211790,0.013556,-0.093892
6.070313,0.217941,0.013220,-0.003994,-0.217640
6.074219,0.165560,0.058226,-0.130091,-0.240583
6.078125,0.105665,-0.027231,-0.113216,-0.051717
6.082031,-0.063440,-0.068468,0.015140,0.025966
6.085938,0.053756,-0.010765,0.155906,0.139345
6.089844,-0.068215,0.171412,0.147305,0.204906
6.093750,0.141765,0.261007,0.303864,0.328771
6.097656,0.160125,0.377768,0.398258,0.469327
6.101563,0.437801,0.460058,0.541954,0.566079
6.105469,0.441668,0.632020,0.545675,0.430815
6.109375,0.511052,0.654188,0.629923,0.416471
6.113281,0.631946,0.627762,0.514225,0.333965
6.117188,0.669090,0.560560,0.505475,0.138616
6.121094,0.606989,0.568980,0.346901,0.051902
6.125000,0.603552,0.419428,0.164777,-0.191847
6.128906,0.459071,0.292334,0.184023,-0.215973
6.132813,0.469739,0.172774,0.119217,-0.233619
6.136719,0.354740,0.290139,-0.009938,-0.152980
6.140625,0.366033,0.256280,-0.055473,-0.249170
6.144531,0.364117,0.096505,0.089745,-0.083496
6.148438,0.396559,0.089106,-0.001801,-0.149549
6.152344,0.219850,0.259928,0.105847,-0.109929
6.156250,0.262347,0.243581,-0.008846,-0.165469
6.160156,0.196526,0.158874,0.025055,-0.254244
6.164063,0.257869,0.026139,0.024791,-0.147167
6.167969,0.114363,0.072608,-0.076426,-0.307187
6.171875,0.091176,0.022180,-0.190840,-0.159172
6.175781,0.106204,0.076853,-0.011974,-0.078298
6.179688,0.119131,0.052302,-0.063909,-0.102210
6.183594,0.072963,0.096291,0.008757,0.099731
6.187500,0.058662,0.216922,0.129274,0.221052
6.191406,0.214019,0.377780,0.325101,0.265018
6.195313,0.455198,0.491602,0.404440,0.245074
6.199219,0.551563,0.657244,0.479957,0.289427
6.203125,0.690267,0.758993,0.608796,0.186156
6.207031,0.837570,0.833180,0.468786,0.164166
6.210938,0.990753,0.724747,0.396916,-0.125251
6.214844,1.021488,0.751982,0.297081,-0.225422
6.218750,0.877825,0.513745,0.109593,-0.439973
6.222656,0.771864,0.400530,-0.056258,-0.703542
6.226563,0.737200,0.158445,-0.388908,-0.869582
6.230469,0.689096,0.012025,-0.562033,-0.958432
6.234375,0.389340,-0.111987,-0.587015,-0.930617
6.238281,0.391777,-0.276473,-0.697909,-1.025840
6.242188,0.230353,-0.334326,-0.788067,-1.046175
6.246094,0.061895,-0.440847,-0.875072,-1.058024
6.250000,-0.026925,-0.525702,-0.811014,-1.085452
6.253906,-0.111772,-0.540432,-0.854556,-1.033224
6.257813,-0.135310,-0.670579,-0.976504,-1.079602
6.261719,-0.293158,-0.721224,-1.032389,-1.153476
6.265625,-0.481608,-0.981148,-1.036984,-1.033118
6.269531,-0.570198,-1.015768,-1.061246,-0.917526
6.273438,-0.751330,-1.125741,-1.069890,-1.000217
6.277344,-0.924250,-1.056857,-1.063333,-0.735501
6.281250,-0.925191,-1.019120,-0.867877,-0.625696
6.285156,-0.883113,-1.068943,-0.872434,-0.346355
6.289063,-0.919792,-0.983041,-0.601140,-0.104316
6.292969,-0.896600,-0.657179,-0.516647,0.071987
6.296875,-0.724655,-0.475901,-0.244921,0.159748
6.300781,-0.561809,-0.432367,-0.132037,0.111584
6.304688,-0.313863,-0.130505,0.017506,0.280901
6.308594,-0.242008,-0.083674,0.023982,0.211576
6.312500,-0.203108,-0.104068,0.006620,0.140917
6.316406,-0.042484,-0.134716,-0.093738,-0.056123
6.320313,0.007612,-0.107170,0.007207,-0.102742
6.324219,-0.179215,-0.225040,-0.264760,-0.134239
6.328125,-0.118416,-0.244748,-0.162890,-0.179375
6.332031,-0.169738,-0.194702,-0.224491,-0.293188
6.335938,-0.256678,-0.379977,-0.389996,-0.285792
6.339844,-0.209932,-0.377941,-0.309321,-0.293542
6.343750,-0.247218,-0.303818,-0.276120,-0.259898
6.347656,-0.326180,-0.293575,-0.204484,-0.271017
6.351563,-0.325144,-0.296245,-0.289046,-0.178496
6.355469,-0.314213,-0.440814,-0.398752,-0.226207
6.359375,-0.287085,-0.464087,-0.390609,-0.221442
6.363281,-0.457876,-0.461702,-0.420797,-0.328315
6.367188,-0.340514,-0.570456,-0.472326,-0.214782
6.371094,-0.607251,-0.655250,-0.514732,-0.209796
6.375000,-0.605372,-0.574878,-0.520243,-0.197686
6.378906,-0.640411,-0.558306,-0.306715,-0.052234
6.382813,-0.652792,-0.558591,-0.371153,0.007686
6.386719,-0.636166,-0.486560,-0.256667,0.213678
6.390625,-0.701731,-0.383483,-0.078380,0.323856
6.394531,-0.486410,-0.259283,0.093771,0.451752
6.398438,-0.322577,-0.065303,0.179175,0.473810
6.402344,-0.122965,-0.044249,0.196448,0.446024
6.406250,-0.024016,0.118069,0.303835,0.456867
6.410156,0.044939,0.135688,0.313825,0.273844
6.414063,0.049129,0.057004,0.225913,0.156643
6.417969,-0.063307,0.050015,0.130798,0.008844
6.421875,0.019814,-0.089803,-0.154717,-0.131795
6.425781,-0.061252,-0.088283,-0.100854,-0.155544
6.429688,-0.290391,-0.323065,-0.308180,-0.239045
6.433594,-0.347276,-0.471108,-0.424004,-0.267008
6.437500,-0.520758,-0.421508,-0.450965,-0.230650
6.441406,-0.464788,-0.449313,-0.293634,-0.167706
6.445313,-0.454823,-0.506997,-0.407370,-0.002511
6.449219,-0.660688,-0.544971,-0.218940,0.087922
6.453125,-0.572309,-0.490391,-0.230429,0.055142
6.457031,-0.677105,-0.406790,-0.274049,0.147772
6.460938,-0.639863,-0.515342,-0.215337,0.060763
6.464844,-0.692750,-0.556874,-0.069171,0.169588
6.468750,-0.791544,-0.505485,-0.180592,0.305085
6.472656,-0.714189,-0.531373,-0.051509,0.356299
6.476563,-0.840105,-0.472949,0.107440,0.408822
6.480469,-0.702918,-0.251444,0.090134,0.767671
6.484375,-0.683226,-0.217226,0.439657,0.822737
6.488281,-0.527510,-0.051386,0.575782,0.942772
6.492188,-0.500454,0.127507,0.737385,1.154246
6.496094,-0.302682,0.432220,1.051946,1.372342
6.500000,-0.010896,0.654884,1.179127,1.432770
6.503906,0.319920,0.786950,1.226331,1.307178
6.507813,0.390048,0.892623,1.200203,1.344092
6.511719,0.710388,1.135158,1.333887,1.105143
6.515625,0.754804,1.155808,1.170493,0.958798
6.519531,0.888436,0.996909,1.038355,0.776221
6.523438,0.752572,0.963322,0.942861,0.536609
6.527344,0.707080,0.858623,0.841035,0.560357
6.531250,0.698834,0.806368,0.719836,0.341731
6.535156,0.737866,0.785744,0.585821,0.372111
6.539063,0.731749,0.664354,0.416101,0.185783
6.542969,0.654197,0.650433,0.426635,0.255357
6.546875,0.679419,0.570734,0.382618,0.136777
6.550781,0.604200,0.454851,0.433444,-0.002191
6.554688,0.632352,0.568281,0.250805,0.091006
6.558594,0.574803,0.310073,0.162334,-0.029023
6.562500,0.393726,0.406695,0.155673,-0.088052
6.566406,0.279623,0.268642,0.107920,-0.195140
6.570313,0.295652,0.036809,-0.041846,-0.087061
6.574219,0.191454,0.003926,-0.123855,-0.084264
6.578125,0.107979,0.028520,-0.149866,-0.108745
6.582031,0.036716,-0.100514,0.035921,0.089446
6.585938,-0.026721,0.104692,0.171342,0.093513
6.589844,-0.076021,0.226647,0.140878,0.236481
6.593750,0.146823,0.310556,0.380043,0.354211
6.597656,0.302413,0.343929,0.414136,0.485025
6.601563,0.305763,0.469212,0.559083,0.387546
6.605469,0.507711,0.533899,0.579965,0.449017
6.609375,0.655038,0.669255,0.542231,0.269135
6.613281,0.641257,0.584489,0.481569,0.308934
6.617188,0.712387,0.642619,0.463995,0.083166
6.621094,0.753100,0.551115,0.235873,-0.031286
6.625000,0.502416,0.542259,0.149901,-0.120353
6.628906,0.588911,0.279790,0.193904,-0.106864
6.632813,0.537217,0.340686,-0.022943,-0.256462
6.636719,0.439775,0.244167,-0.031003,-0.213168
6.640625,0.329779,0.236722,0.078219,-0.180141
6.644531,0.315659,0.133367,-0.005381,-0.147750
6.648438,0.373316,0.266842,0.070835,-0.067334
6.652344,0.219583,0.139422,-0.011612,-0.121344
6.656250,0.211371,0.178669,-0.053108,-0.178775
6.660156,0.314318,0.100111,0.032386,-0.106258
6.664063,0.250989,0.079434,-0.098861,-0.146868
6.667969,0.200205,0.051300,-0.099417,-0.178205
6.671875,0.202538,0.080369,-0.186501,-0.127610
6.675781,0.042184,-0.017045,-0.139928,-0.123639
6.679688,0.158175,-0.003361,0.038505,-0.132456
6.683594,0.152009,0.182366,0.130355,0.054147
6.687500,0.096519,0.205260,0.137006,0.168920
6.691406,0.199366,0.313995,0.275122,0.306049
6.695313,0.455561,0.388108,0.339062,0.354686
6.699219,0.612652,0.571211,0.597446,0.237697
6.703125,0.737159,0.638005,0.556477,0.133817
6.707031,0.807768,0.820652,0.480347,0.065236
6.710938,0.953521,0.681513,0.482536,-0.055725
6.714844,0.935621,0.749065,0.250245,-0.311578
6.718750,0.957526,0.593292,0.158820,-0.434719
6.722656,0.936212,0.459650,-0.057387,-0.736442
6.726563,0.822152,0.205747,-0.245714,-0.748805
6.730469,0.543411,0.070703,-0.547990,-0.951208
6.734375,0.425002,-0.014201,-0.671371,-0.960651
6.738281,0.413419,-0.286730,-0.715688,-1.121995
6.742188,0.232897,-0.346617,-0.796809,-0.953678
6.746094,0.059106,-0.450001,-0.898956,-0.981243
6.750000,-0.027825,-0.501195,-0.953607,-1.084384
6.753906,-0.121147,-0.574829,-0.951386,-1.111603
6.757813,-0.195806,-0.713566,-1.071166,-1.086144
6.761719,-0.268148,-0.863677,-1.077347,-1.153144
6.765625,-0.436797,-0.839893,-1.084411,-1.134474
6.769531,-0.642097,-0.899502,-1.070216,-0.921309
6.773438,-0.670911,-1.015241,-1.098304,-0.955311
6.777344,-0.768800,-1.147621,-1.134170,-0.844450
6.781250,-0.919642,-1.153851,-0.995473,-0.619670
6.785156,-1.001764,-0.969566,-0.752649,-0.360591
6.789063,-0.904738,-0.852319,-0.579036,-0.217821
6.792969,-0.767223,-0.780494,-0.414572,-0.084203
6.796875,-0.684492,-0.592836,-0.140941,0.110786
6.800781,-0.591085,-0.415879,-0.081379,0.207727
6.804688,-0.345313,-0.306616,0.107166,0.330460
6.808594,-0.147218,-0.133970,0.119820,0.231308
6.812500,-0.224347,-0.003726,0.009043,0.184755
6.816406,-0.125982,0.043382,0.060802,0.008623
6.820313,-0.109772,-0.161527,-0.177284,-0.048326
6.824219,-0.026423,-0.211455,-0.231067,-0.202335
6.828125,-0.196132,-0.162770,-0.289484,-0.160260
6.832031,-0.142428,-0.357178,-0.327591,-0.275389
6.835938,-0.344770,-0.247655,-0.226349,-0.301757
6.839844,-0.249471,-0.388449,-0.330336,-0.260109
6.843750,-0.339567,-0.360985,-0.404315,-0.138224
6.847656,-0.344997,-0.320894,-0.275156,-0.215166
6.851563,-0.370399,-0.281521,-0.338023,-0.145956
6.855469,-0.244790,-0.405597,-0.352829,-0.173843
6.859375,-0.421615,-0.477108,-0.271631,-0.328025
6.863281,-0.324729,-0.433876,-0.455690,-0.293114
6.867188,-0.431862,-0.412401,-0.423847,-0.292544
6.871094,-0.585549,-0.608446,-0.467930,-0.333021
6.875000,-0.603665,-0.532981,-0.492262,-0.205818
6.878906,-0.581869,-0.521668,-0.400038,-0.188717
6.882813,-0.670841,-0.570065,-0.277587,-0.015558
6.886719,-0.617703,-0.477586,-0.122151,0.131175
6.890625,-0.682144,-0.408552,-0.073958,0.253500
6.894531,-0.419311,-0.291186,0.115012,0.325015
6.898438,-0.405476,-0.134890,0.093868,0.464455
6.902344,-0.221052,0.058489,0.176190,0.533954
6.906250,-0.059898,0.205370,0.243847,0.467087
6.910156,0.013102,0.041259,0.210205,0.340595
6.914063,0.104874,0.160671,0.230532,0.233312
6.917969,0.040243,0.093694,0.035441,-0.006717
6.921875,-0.048890,0.020085,-0.121751,0.000643
6.925781,-0.039905,-0.139408,-0.186415,-0.081401
6.929688,-0.218314,-0.343511,-0.354126,-0.212101
6.933594,-0.240899,-0.477981,-0.387412,-0.164890
6.937500,-0.342952,-0.508944,-0.262025,-0.229933
6.941406,-0.468676,-0.574449,-0.402555,-0.066497
6.945313,-0.641844,-0.583151,-0.385110,-0.129005
6.949219,-0.567639,-0.406420,-0.179520,-0.001198
6.953125,-0.528025,-0.425807,-0.259594,0.057866
6.957031,-0.579560,-0.507541,-0.191690,0.025871
6.960938,-0.569560,-0.519790,-0.104960,0.234589
6.964844,-0.775000,-0.455701,-0.236646,0.201809
6.968750,-0.796229,-0.547509,-0.036523,0.320160
6.972656,-0.774138,-0.558625,-0.048144,0.374599
6.976563,-0.788958,-0.404050,0.077906,0.580356
6.980469,-0.767110,-0.363106,0.200429,0.691473
6.984375,-0.788546,-0.227550,0.448619,0.777019
6.988281,-0.573217,-0.019603,0.606048,0.954729
6.992188,-0.419854,0.151876,0.841868,1.219446
6.996094,-0.205626,0.432547,1.000141,1.347585
7.000000,-0.007565,0.561044,1.218852,1.304165
7.003906,0.236594,0.906806,1.263289,1.310824
7.007813,0.486601,0.988075,1.242610,1.210988
7.011719,0.617606,1.083089,1.169955,1.035703
7.015625,0.668823,0.989010,1.200763,1.022459
7.019531,0.880589,1.018051,1.119862,0.802040
7.023438,0.739419,0.956341,0.820065,0.642503
7.027344,0.857143,0.950531,0.870094,0.524457
7.031250,0.777250,0.767477,0.644225,0.393071
7.035156,0.617217,0.722837,0.660224,0.200714
7.039063,0.634809,0.666339,0.565723,0.215947
7.042969,0.644350,0.623303,0.416366,0.241121
7.046875,0.587446,0.592231,0.350983,0.062836
7.050781,0.529403,0.551436,0.344481,0.185007
7.054688,0.556049,0.542689,0.254367,-0.064408
7.058594,0.503812,0.404753,0.156459,-0.100314
7.062500,0.424014,0.315002,0.103991,-0.086938
7.066406,0.316198,0.221025,0.069685,-0.179104
7.070313,0.325431,0.153430,-0.081522,-0.140649
7.074219,0.108519,0.098165,0.011334,-0.073008
7.078125,-0.067868,-0.106908,-0.054914,-0.040416
7.082031,0.008883,-0.022378,0.071542,0.127947
7.085938,0.018949,-0.028525,0.153014,0.184983
7.089844,0.006244,0.078278,0.253896,0.189688
7.093750,0.011459,0.195993,0.324489,0.402215
7.097656,0.312282,0.454210,0.398350,0.511298
7.101563,0.426764,0.467903,0.479907,0.440582
7.105469,0.435385,0.560518,0.626393,0.527390
7.109375,0.665774,0.651435,0.574197,0.403652
7.113281,0.731910,0.667855,0.615130,0.229403
7.117188,0.786681,0.628593,0.508578,0.103187
7.121094,0.573880,0.579229,0.373541,-0.042466
7.125000,0.603125,0.374123,0.175522,-0.080770
7.128906,0.509864,0.341955,0.098071,-0.189936
7.132813,0.461353,0.298087,-0.027774,-0.155066
7.136719,0.465894,0.290504,-0.074709,-0.253401
7.140625,0.351420,0.138003,-0.086482,-0.086621
7.144531,0.328561,0.224528,0.052111,-0.105945
7.148438,0.239648,0.099340,0.017475,-0.078679
7.152344,0.296452,0.275811,0.034087,-0.156510
7.156250,0.217573,0.160248,-0.026160,-0.205318
7.160156,0.185046,0.235297,-0.065521,-0.164888
7.164063,0.213462,0.201208,-0.004025,-0.125670
7.167969,0.115092,0.092772,-0.181100,-0.187411
7.171875,0.128510,-0.023818,-0.115335,-0.273484
7.175781,0.001074,0.037829,-0.108013,-0.112746
7.179688,0.073148,-0.061707,0.004908,-0.068898
7.183594,0.105558,0.062945,0.013355,0.064863
7.187500,0.211642,0.280060,0.126391,0.068161
7.191406,0.214987,0.364628,0.384041,0.176766
7.195313,0.353172,0.416974,0.403071,0.362021
7.199219,0.512855,0.586060,0.527356,0.235043
7.203125,0.723571,0.757236,0.461453,0.162930
7.207031,0.835654,0.759047,0.579585,0.178819
7.210938,0.870218,0.732399,0.453401,-0.049884
7.214844,0.998170,0.618897,0.266823,-0.176188
7.218750,0.944952,0.650147,0.055983,-0.511678
7.222656,0.883384,0.341692,-0.222961,-0.723905
7.226563,0.748842,0.258694,-0.324906,-0.744003
7.230469,0.566979,0.011507,-0.512347,-0.857846
7.234375,0.524311,-0.180714,-0.552702,-0.897624
7.238281,0.272978,-0.206600,-0.676871,-0.978598
7.242188,0.192708,-0.257033,-0.698109,-1.049856
7.246094,0.028644,-0.342147,-0.917555,-1.002751
7.250000,-0.037808,-0.555492,-0.896387,-1.092275
7.253906,-0.185021,-0.621812,-0.859930,-1.147665
7.257813,-0.102477,-0.625664,-0.941304,-1.090997
7.261719,-0.388724,-0.872116,-1.025395,-1.054689
7.265625,-0.501962,-0.908808,-1.043634,-1.130608
7.269531,-0.686199,-1.039526,-1.090426,-1.049491
7.273438,-0.661974,-1.011416,-1.150430,-0.911408
7.277344,-0.924384,-1.195552,-1.120067,-0.733665
7.281250,-1.005512,-1.068050,-0.882783,-0.511949
7.285156,-0.982977,-1.010837,-0.887358,-0.387722
7.289063,-0.959007,-0.973538,-0.645421,-0.151691
7.292969,-0.858475,-0.735807,-0.427737,-0.074114
7.296875,-0.770420,-0.606206,-0.195636,0.110569
7.300781,-0.545529,-0.410004,-0.045232,0.144834
7.304688,-0.306526,-0.272657,-0.030256,0.309594
7.308594,-0.311161,-0.089020,0.125716,0.247878
7.312500,-0.100297,-0.004400,0.110198,0.079532
7.316406,-0.102359,-0.019203,-0.000286,-0.042854
7.320313,-0.099164,-0.066176,-0.114247,-0.077101
7.324219,-0.111300,-0.192084,-0.257705,-0.103456
7.328125,-0.124465,-0.161566,-0.286385,-0.307387
7.332031,-0.229253,-0.234571,-0.315222,-0.256591
7.335938,-0.338097,-0.338205,-0.392218,-0.238859
7.339844,-0.357260,-0.413957,-0.338963,-0.188667
7.343750,-0.351483,-0.264194,-0.270547,-0.243134
7.347656,-0.387141,-0.441018,-0.352390,-0.134484
7.351563,-0.291100,-0.342616,-0.233615,-0.247779
7.355469,-0.260445,-0.447344,-0.320825,-0.300922
7.359375,-0.408010,-0.398008,-0.435165,-0.284639
7.363281,-0.372224,-0.363698,-0.348180,-0.294497
7.367188,-0.522972,-0.500489,-0.417994,-0.231475
7.371094,-0.516156,-0.645019,-0.506833,-0.150129
7.375000,-0.561703,-0.645509,-0.381267,-0.113712
7.378906,-0.724573,-0.608033,-0.327215,-0.124979
7.382813,-0.669758,-0.615493,-0.366864,0.076648
7.386719,-0.726594,-0.529743,-0.278063,0.068275
7.390625,-0.680253,-0.375725,-0.110157,0.185540
7.394531,-0.514504,-0.305652,0.018534,0.336146
7.398438,-0.322958,-0.147698,0.235673,0.364078
7.402344,-0.296978,-0.053082,0.313773,0.403713
7.406250,-0.061182,0.182829,0.203689,0.302707
7.410156,0.090774,0.219221,0.204431,0.292223
7.414063,0.113844,0.107614,0.157907,0.070462
7.417969,0.056044,0.094717,0.140469,0.019900
7.421875,0.059762,-0.130235,0.017888,-0.079824
7.425781,-0.132133,-0.084552,-0.290289,-0.166972
7.429688,-0.274069,-0.309782,-0.256830,-0.245831
7.433594,-0.306299,-0.473706,-0.331628,-0.199182
7.437500,-0.369969,-0.366729,-0.329823,-0.200303
7.441406,-0.464115,-0.508143,-0.293387,-0.073600
7.445313,-0.480727,-0.552323,-0.251009,-0.072418
7.449219,-0.554187,-0.431956,-0.174690,-0.086812
7.453125,-0.564898,-0.419009,-0.294580,-0.029002
7.457031,-0.670999,-0.477044,-0.299940,0.183697
7.460938,-0.549344,-0.411986,-0.114469,0.103337
7.464844,-0.662237,-0.429087,-0.189397,0.160086
7.468750,-0.720945,-0.538541,-0.029089,0.193134
7.472656,-0.704125,-0.407997,-0.105868,0.355140
7.476563,-0.812060,-0.395866,0.060459,0.596464
7.480469,-0.737213,-0.301471,0.136347,0.697676
7.484375,-0.639390,-0.282787,0.395762,0.864797
7.488281,-0.628074,0.014654,0.504832,1.000525
7.492188,-0.467397,0.113337,0.850781,1.112335
7.496094,-0.215329,0.438051,0.903832,1.378474
7.500000,0.008483,0.636060,1.054483,1.354067
7.503906,0.332059,0.770448,1.333463,1.247936
7.507813,0.517049,0.898480,1.212647,1.154697
7.511719,0.608573,1.113881,1.284270,1.142956
7.515625,0.728413,1.015498,1.207542,0.932363
7.519531,0.739380,0.956480,1.048550,0.823138
7.523438,0.818755,0.900622,0.892558,0.654815
7.527344,0.763624,0.867314,0.770153,0.539547
7.531250,0.688946,0.818376,0.603516,0.288533
7.535156,0.685414,0.707474,0.621310,0.342525
7.539063,0.579190,0.614606,0.491306,0.219036
7.542969,0.573731,0.542266,0.435565,0.250458
7.546875,0.681645,0.526308,0.361546,0.154821
7.550781,0.537457,0.558724,0.325406,0.053587
7.554688,0.523756,0.551061,0.222716,0.120757
7.558594,0.478410,0.341451,0.185515,0.017664
7.562500,0.384792,0.372463,0.112692,-0.159021
7.566406,0.434620,0.259832,-0.027114,-0.247783
7.570313,0.241738,0.041483,-0.042930,-0.117855
7.574219,0.019468,-0.023826,0.025132,-0.078509
7.578125,0.089477,-0.036623,0.031709,-0.105359
7.582031,-0.034366,-0.054193,0.100741,0.058644
7.585938,-0.098588,0.012342,0.022046,0.077407
7.589844,-0.071661,0.126766,0.253398,0.310462
7.593750,0.035708,0.279298,0.449908,0.353566
7.597656,0.124405,0.501376,0.584962,0.438733
7.601563,0.333691,0.513644,0.552479,0.485408
7.605469,0.465732,0.600671,0.686567,0.356297
7.609375,0.659696,0.708072,0.569267,0.384674
7.613281,0.759405,0.604783,0.556965,0.183382
7.617188,0.697117,0.573886,0.355185,0.213365
7.621094,0.702091,0.465048,0.315742,-0.086852
7.625000,0.607647,0.424362,0.158557,-0.154317
7.628906,0.488690,0.332997,0.175884,-0.099651
7.632813,0.411512,0.264245,-0.042801,-0.111168
7.636719,0.284834,0.239419,-0.018663,-0.145573
7.640625,0.421030,0.198513,-0.002250,-0.249786
7.644531,0.313484,0.086047,-0.087308,-0.214483
7.648438,0.381111,0.248890,0.031054,-0.067423
7.652344,0.279009,0.162655,-0.056260,-0.172557
7.656250,0.205905,0.247990,-0.053426,-0.136187
7.660156,0.311760,0.124040,-0.058503,-0.164702
7.664063,0.152145,0.052004,-0.090598,-0.109380
7.667969,0.266401,0.067605,-0.053213,-0.231256
7.671875,0.070818,-0.070146,-0.169015,-0.190588
7.675781,0.049010,0.059637,-0.168348,-0.107305
7.679688,0.041758,0.010139,0.072627,-0.109576
7.683594,0.127087,0.162565,0.063915,0.018637
7.687500,0.187359,0.257537,0.248102,0.212134
7.691406,0.275013,0.349678,0.224531,0.255142
7.695313,0.345833,0.547881,0.355496,0.292080
7.699219,0.450058,0.504355,0.585710,0.366730
7.703125,0.743887,0.646618,0.489892,0.205668
7.707031,0.940266,0.808843,0.475385,0.110342
7.710938,1.014346,0.848041,0.427999,-0.025253
7.714844,1.049699,0.662381,0.316567,-0.181197
7.718750,0.989173,0.674305,0.132063,-0.390310
7.722656,0.784973,0.360972,-0.175346,-0.581046
7.726563,0.757954,0.225654,-0.241971,-0.864225
7.730469,0.527168,0.165141,-0.455948,-0.817393
7.734375,0.397203,-0.018727,-0.661548,-0.966400
7.738281,0.364268,-0.176980,-0.635930,-0.924158
7.742188,0.134254,-0.396613,-0.769571,-1.099966
7.746094,0.052837,-0.369905,-0.777149,-1.026709
7.750000,0.030624,-0.403584,-0.933859,-1.079439
7.753906,-0.037946,-0.558036,-0.977427,-1.040780
7.757813,-0.200758,-0.604058,-1.021511,-0.983060
7.761719,-0.357495,-0.851786,-1.115250,-1.116236
7.765625,-0.376281,-0.989756,-1.055201,-1.037908
7.769531,-0.649830,-0.962940,-1.169565,-0.986206
7.773438,-0.680929,-1.117480,-1.101593,-0.941377
7.777344,-0.921692,-1.146788,-1.152262,-0.715617
7.781250,-0.941342,-0.988747,-0.986098,-0.633626
7.785156,-0.962289,-1.035062,-0.746813,-0.359378
7.789063,-0.912510,-0.826325,-0.695856,-0.256167
7.792969,-0.926239,-0.693241,-0.351481,0.082639
7.796875,-0.769814,-0.587749,-0.142653,0.052666
7.800781,-0.636041,-0.306854,-0.062368,0.253187
7.804688,-0.345217,-0.295048,0.035324,0.146137
7.808594,-0.331242,-0.191982,0.036273,0.182841
7.812500,-0.069439,0.043358,0.074174,0.096221
7.816406,-0.066196,-0.131758,0.054826,0.068199
7.820313,-0.126367,-0.135057,-0.093086,-0.023921
7.824219,-0.005977,-0.160569,-0.244400,-0.110362
7.828125,-0.172851,-0.172850,-0.146399,-0.302282
7.832031,-0.228278,-0.299165,-0.307224,-0.139873
7.835938,-0.279467,-0.356997,-0.270618,-0.253303
7.839844,-0.361038,-0.413652,-0.390063,-0.295994
7.843750,-0.239018,-0.399697,-0.381619,-0.286658
7.847656,-0.329861,-0.303811,-0.230964,-0.105542
7.851563,-0.355255,-0.347445,-0.336733,-0.122482
7.855469,-0.344977,-0.272145,-0.274811,-0.176521
7.859375,-0.286646,-0.442918,-0.320521,-0.260161
7.863281,-0.384033,-0.486037,-0.364084,-0.176927
7.867188,-0.382081,-0.472079,-0.491015,-0.174679
7.871094,-0.596287,-0.626798,-0.388599,-0.245928
7.875000,-0.569599,-0.590184,-0.434534,-0.096814
7.878906,-0.590529,-0.652920,-0.396693,-0.063955
7.882813,-0.711043,-0.486529,-0.289854,0.046236
7.886719,-0.607889,-0.413092,-0.100987,0.243494
7.890625,-0.529203,-0.386997,0.028991,0.222956
7.894531,-0.576069,-0.317384,0.007063,0.339326
7.898438,-0.263096,-0.036321,0.281192,0.484292
7.902344,-0.247023,0.057123,0.199680,0.450112
7.906250,-0.069436,0.050546,0.343773,0.459304
7.910156,-0.036453,0.175642,0.220842,0.192292
7.914063,-0.028452,0.193182,0.141787,0.182277
7.917969,0.121453,0.037579,-0.009641,0.046511
7.921875,-0.030647,-0.105122,-0.104204,-0.125070
7.925781,-0.032637,-0.152517,-0.116672,-0.175441
7.929688,-0.286308,-0.203719,-0.349841,-0.272300
7.933594,-0.341268,-0.322903,-0.360173,-0.117101
7.937500,-0.403314,-0.422559,-0.430755,-0.108060
7.941406,-0.582908,-0.383157,-0.330527,-0.129699
7.945313,-0.565726,-0.561707,-0.397310,-0.143075
7.949219,-0.499109,-0.421390,-0.189243,0.101937
7.953125,-0.592676,-0.451400,-0.204464,0.029220
7.957031,-0.682348,-0.371048,-0.212333,0.190226
7.960938,-0.684913,-0.549110,-0.175481,0.180163
7.964844,-0.654707,-0.401914,-0.244037,0.174711
7.968750,-0.715833,-0.520042,-0.220937,0.271345
7.972656,-0.737684,-0.398397,-0.067738,0.401899
7.976563,-0.846643,-0.350736,0.106015,0.418167
7.980469,-0.787789,-0.318664,0.212011,0.570961
7.984375,-0.772000,-0.192113,0.265369,0.840096
7.988281,-0.715127,0.009070,0.503192,0.952621
7.992188,-0.460973,0.094507,0.748990,1.213503
7.996094,-0.245631,0.348227,0.919773,1.251786
8.000000,0.038984,0.602518,1.179824,1.279414
8.003906,0.202338,0.857842,1.156387,1.395558
8.007813,0.376294,0.977156,1.303871,1.248749
8.011719,0.562179,1.072290,1.195939,1.055291
8.015625,0.653152,1.111736,1.172909,0.932044
8.019531,0.837470,1.035900,1.137636,0.807566
8.023438,0.863869,1.024811,0.829160,0.685709
8.027344,0.858649,0.812572,0.861791,0.435252
8.031250,0.807448,0.797664,0.662332,0.437808
8.035156,0.636164,0.635579,0.560951,0.311291
8.039063,0.689623,0.662231,0.444746,0.218591
8.042969,0.665918,0.556024,0.443912,0.208351
8.046875,0.655750,0.482035,0.439485,0.120415
8.050781,0.614649,0.580416,0.438368,0.134952
8.054688,0.506883,0.410706,0.209357,-0.030624
8.058594,0.418919,0.328964,0.146698,-0.097492
8.062500,0.400687,0.382892,0.177443,-0.150844
8.066406,0.388238,0.122210,0.094434,-0.226440
8.070313,0.297745,0.140159,-0.130470,-0.201146
8.074219,0.121999,0.120435,-0.141214,-0.174898
8.078125,0.059567,0.001655,0.015585,-0.001145
8.082031,0.049802,0.031324,-0.015061,0.027155
8.085938,-0.097996,-0.011625,0.065563,0.152976
8.089844,0.027202,0.159405,0.338121,0.335779
8.093750,0.103169,0.225034,0.430709,0.418963
8.097656,0.243279,0.359694,0.591559,0.512676
8.101563,0.445938,0.606780,0.628366,0.470647
8.105469,0.394162,0.703305,0.640407,0.355560
8.109375,0.543332,0.774995,0.627631,0.378320
8.113281,0.632553,0.759816,0.554516,0.178308
8.117188,0.686003,0.690005,0.352984,0.180292
8.121094,0.663670,0.560255,0.285371,0.023594
8.125000,0.655783,0.526720,0.227385,-0.044789
8.128906,0.577789,0.260814,0.082632,-0.247436
8.132813,0.371275,0.299451,0.100264,-0.109948
8.136719,0.304462,0.133284,-0.073173,-0.231965
8.140625,0.387759,0.203061,0.058065,-0.207427
8.144531,0.309808,0.268891,-0.050237,-0.122806
8.148438,0.202371,0.095548,0.089263,-0.045775
8.152344,0.272583,0.136948,-0.066614,-0.205630
8.156250,0.207452,0.180665,0.038778,-0.253875
8.160156,0.206774,0.135788,-0.062594,-0.135553
8.164063,0.167457,0.110855,0.005757,-0.276802
8.167969,0.284825,0.093978,-0.043523,-0.165212
8.171875,0.080063,-0.007787,-0.155634,-0.257387
8.175781,0.065012,-0.010182,-0.039000,-0.149209
8.179688,-0.027777,0.086958,-0.116693,-0.064524
8.183594,0.079959,0.086785,0.138183,0.129854
8.187500,0.088045,0.282689,0.093547,0.201732
8.191406,0.167048,0.287509,0.398265,0.173334
8.195313,0.473820,0.390986,0.406677,0.287224
8.199219,0.507233,0.650903,0.474488,0.188484
8.203125,0.699221,0.706334,0.506647,0.303797
8.207031,0.936004,0.728687,0.572895,0.061214
8.210938,0.991530,0.676194,0.395994,-0.004018
8.214844,0.944617,0.614144,0.244819,-0.197450
8.218750,0.981479,0.666201,0.116404,-0.366494
8.222656,0.911140,0.416499,-0.091445,-0.577406
8.226563,0.799851,0.209869,-0.251775,-0.829165
8.230469,0.644168,0.062394,-0.397218,-0.999844
8.234375,0.467279,-0.036133,-0.681052,-0.951112
8.238281,0.223300,-0.212175,-0.733201,-0.951817
8.242188,0.187300,-0.231816,-0.780544,-1.094138
8.246094,0.103622,-0.496244,-0.822691,-1.072916
8.250000,-0.009723,-0.492524,-0.963557,-1.144099
8.253906,-0.123059,-0.634309,-1.028926,-1.137403
8.257813,-0.107572,-0.628130,-0.976077,-0.983920
8.261719,-0.392913,-0.759515,-1.141227,-1.036983
8.265625,-0.459199,-0.903475,-1.064854,-1.066847
8.269531,-0.666124,-0.899315,-1.115514,-1.078565
8.273438,-0.668087,-1.124546,-1.066871,-0.904002
8.277344,-0.947034,-1.094606,-1.019075,-0.859391
8.281250,-0.904479,-1.158232,-0.950399,-0.587666
8.285156,-0.956319,-1.001614,-0.788817,-0.409122
8.289063,-0.994865,-0.869266,-0.689774,-0.223784
8.292969,-0.836358,-0.725614,-0.426100,0.033729
8.296875,-0.730852,-0.634476,-0.234119,0.168261
8.300781,-0.505067,-0.402475,-0.131754,0.188897
8.304688,-0.422840,-0.256040,0.048793,0.271570
8.308594,-0.213826,-0.112331,-0.010374,0.195039
8.312500,-0.097897,-0.096938,0.138253,0.065428
8.316406,-0.014786,0.028198,-0.090557,0.107478
8.320313,-0.000411,-0.058635,-0.174357,-0.053191
8.324219,-0.045057,-0.202016,-0.089181,-0.250520
8.328125,-0.145361,-0.240119,-0.260436,-0.167269
8.332031,-0.204873,-0.230696,-0.244202,-0.273954
8.335938,-0.198412,-0.239501,-0.385185,-0.257935
8.339844,-0.193718,-0.440458,-0.329578,-0.315765
8.343750,-0.263493,-0.441280,-0.347508,-0.279869
8.347656,-0.228654,-0.313122,-0.289600,-0.100723
8.351563,-0.316900,-0.373638,-0.229269,-0.202283
8.355469,-0.261066,-0.276303,-0.234571,-0.224939
8.359375,-0.339626,-0.304458,-0.328600,-0.274578
8.363281,-0.348997,-0.506479,-0.298773,-0.206563
8.367188,-0.449031,-0.508060,-0.504086,-0.213491
8.371094,-0.455282,-0.499676,-0.495911,-0.258470
8.375000,-0.500739,-0.583566,-0.446005,-0.210939
8.378906,-0.758929,-0.526281,-0.468702,-0.197694
8.382813,-0.683689,-0.665613,-0.352251,0.029935
8.386719,-0.647862,-0.557025,-0.166743,0.092675
8.390625,-0.593485,-0.411177,-0.101349,0.330530
8.394531,-0.395366,-0.304851,0.091053,0.369359
8.398438,-0.391120,-0.026130,0.110778,0.527852
8.402344,-0.265189,0.017789,0.200254,0.378417
8.406250,-0.060189,0.089737,0.182907,0.454172
8.410156,-0.073717,0.159829,0.171726,0.210658
8.414063,-0.028161,0.102005,0.186804,0.262697
8.417969,-0.022084,0.005379,-0.015654,0.038306
8.421875,0.027357,-0.102806,0.003410,-0.059727
8.425781,-0.168326,-0.241965,-0.173969,-0.156064
8.429688,-0.296624,-0.273260,-0.200598,-0.178144
8.433594,-0.300517,-0.445124,-0.404542,-0.132030
8.437500,-0.507506,-0.360850,-0.450224,-0.216901
8.441406,-0.528875,-0.498393,-0.288547,-0.126516
8.445313,-0.600408,-0.427709,-0.225531,-0.089971
8.449219,-0.661653,-0.559928,-0.333034,0.046997
8.453125,-0.511003,-0.530958,-0.241371,0.042226
8.457031,-0.683079,-0.455481,-0.224599,0.114526
8.460938,-0.679059,-0.469316,-0.277580,0.228906
8.464844,-0.678565,-0.451244,-0.184824,0.291242
8.468750,-0.739596,-0.505896,-0.222065,0.310552
8.472656,-0.821884,-0.438002,0.029884,0.395468
8.476563,-0.803682,-0.484959,-0.000506,0.403682
8.480469,-0.710874,-0.299869,0.266684,0.764435
8.484375,-0.721675,-0.111865,0.425498,0.923696
8.488281,-0.650548,-0.056692,0.580993,0.986151
8.492188,-0.415630,0.229786,0.832016,1.101987
8.496094,-0.264563,0.387406,1.043880,1.338171
8.500000,-0.021777,0.587734,1.078887,1.317207
8.503906,0.295587,0.905994,1.280918,1.421664
8.507813,0.462615,1.041341,1.247325,1.241896
8.511719,0.667811,1.128615,1.195143,1.098639
8.515625,0.692443,1.051309,1.247694,1.042664
8.519531,0.822650,0.963183,1.119787,0.766038
8.523438,0.721864,0.986544,0.906939,0.599621
8.527344,0.684782,0.838719,0.733514,0.431786
8.531250,0.739452,0.804239,0.628636,0.348496
8.535156,0.711481,0.762959,0.553206,0.390421
8.539063,0.608386,0.672750,0.577578,0.280414
8.542969,0.580707,0.535634,0.536493,0.159077
8.546875,0.669553,0.538266,0.456321,0.075685
8.550781,0.498368,0.431978,0.372657,0.179549
8.554688,0.583421,0.546129,0.213310,0.121449
8.558594,0.461264,0.389306,0.149863,-0.098897
8.562500,0.391426,0.291096,0.214164,-0.194836
8.566406,0.367505,0.118072,0.028789,-0.168616
8.570313,0.164496,0.033936,-0.013553,-0.266066
8.574219,0.189969,0.047178,-0.103691,-0.048176
8.578125,-0.039425,0.011537,-0.106396,-0.033561
8.582031,-0.101929,-0.029417,-0.040122,-0.008502
8.585938,-0.137321,-0.052063,0.103086,0.175466
8.589844,-0.019209,0.056468,0.285176,0.284088
8.593750,0.046515,0.194965,0.422654,0.296028
8.597656,0.225480,0.441459,0.404806,0.423020
8.601563,0.322041,0.563344,0.532773,0.421657
8.605469,0.547828,0.622241,0.636177,0.509469
8.609375,0.577945,0.626925,0.675462,0.283589
8.613281,0.620533,0.755195,0.549596,0.189978
8.617188,0.653072,0.563024,0.356430,0.120482
8.621094,0.675613,0.556890,0.258124,-0.041400
8.625000,0.512369,0.485672,0.265810,-0.178415
8.628906,0.450250,0.407160,0.171236,-0.187715
8.632813,0.426850,0.346110,0.086991,-0.196442
8.636719,0.314094,0.313242,-0.054188,-0.229666
8.640625,0.264434,0.145678,-0.009740,-0.176485
8.644531,0.293760,0.144126,0.015513,-0.122005
8.648438,0.318391,0.206241,0.103685,-0.213670
8.652344,0.307670,0.204315,-0.014322,-0.144853
8.656250,0.211289,0.213217,-0.048594,-0.207920
8.660156,0.338248,0.210111,-0.073436,-0.180237
8.664063,0.181447,0.166525,0.008909,-0.215318
8.667969,0.144924,0.131355,-0.180977,-0.279505
8.671875,0.099924,-0.054061,-0.024650,-0.115394
8.675781,0.137299,0.014272,-0.077626,-0.237596
8.679688,0.009958,0.025081,0.000654,-0.065904
8.683594,-0.024088,0.152595,0.074959,0.115078
8.687500,0.133818,0.240619,0.254281,0.249572
8.691406,0.190367,0.252433,0.326424,0.161000
8.695313,0.285816,0.384464,0.501495,0.322719
8.699219,0.584209,0.547469,0.500773,0.380474
8.703125,0.789073,0.623585,0.495945,0.184895
8.707031,0.928062,0.701533,0.567640,0.031940
8.710938,0.867772,0.785129,0.396889,-0.102971
8.714844,0.918493,0.656425,0.247806,-0.280099
8.718750,0.856959,0.644026,-0.034014,-0.419873
8.722656,0.800565,0.433922,-0.036903,-0.668782
8.726563,0.648037,0.229521,-0.379504,-0.724521
8.730469,0.703269,0.015645,-0.472841,-0.938038
8.734375,0.425651,-0.101014,-0.638375,-1.079793
8.738281,0.395250,-0.148034,-0.787612,-0.976428
8.742188,0.275582,-0.335741,-0.779033,-1.029200
8.746094,0.018626,-0.336988,-0.858643,-1.049365
8.750000,0.022189,-0.475451,-0.978151,-1.120887
8.753906,-0.180428,-0.597198,-0.965626,-0.963239
8.757813,-0.165120,-0.598648,-1.035253,-1.136376
8.761719,-0.347108,-0.744497,-1.032347,-1.081865
8.765625,-0.532400,-0.959272,-1.141075,-0.985751
8.769531,-0.702353,-0.945586,-1.144287,-0.929213
8.773438,-0.675618,-1.089781,-1.128429,-0.822339
8.777344,-0.773211,-1.148039,-1.155250,-0.836702
8.781250,-0.877840,-1.009829,-0.863227,-0.608748
8.785156,-1.068478,-1.103779,-0.712688,-0.494869
8.789063,-1.016383,-0.847511,-0.627283,-0.168021
8.792969,-0.900420,-0.662613,-0.348976,0.027978
8.796875,-0.734319,-0.551398,-0.296644,0.097586
8.800781,-0.446170,-0.310611,-0.009138,0.157529
8.804688,-0.309508,-0.235260,0.075887,0.296321
8.808594,-0.181870,-0.157179,0.059374,0.199274
8.812500,-0.054338,-0.031493,0.048379,0.212912
8.816406,-0.104081,-0.136912,0.017191,-0.039907
8.820313,-0.140097,-0.014082,-0.130242,0.026539
8.824219,-0.162705,-0.241348,-0.197544,-0.161783
8.828125,-0.206680,-0.261970,-0.238313,-0.263312
8.832031,-0.103159,-0.365554,-0.238986,-0.313171
8.835938,-0.248133,-0.338428,-0.255111,-0.255910
8.839844,-0.233743,-0.285736,-0.236721,-0.219803
8.843750,-0.220028,-0.397220,-0.327546,-0.134055
8.847656,-0.378379,-0.268162,-0.373990,-0.129978
8.851563,-0.245256,-0.390870,-0.286908,-0.101108
8.855469,-0.388452,-0.324189,-0.409990,-0.156449
8.859375,-0.337058,-0.442994,-0.382365,-0.156352
8.863281,-0.420656,-0.362546,-0.458919,-0.232629
8.867188,-0.489125,-0.492803,-0.408309,-0.238695
8.871094,-0.449351,-0.524214,-0.526931,-0.344722
8.875000,-0.512770,-0.676201,-0.412875,-0.248680
8.878906,-0.669184,-0.545142,-0.395373,-0.177113
8.882813,-0.627676,-0.496360,-0.248415,0.046041
8.886719,-0.757086,-0.544789,-0.208879,0.152772
8.890625,-0.625408,-0.296651,-0.056377,0.200343
8.894531,-0.591583,-0.162512,0.048790,0.379438
8.898438,-0.325330,-0.044904,0.281105,0.468242
8.902344,-0.260447,0.080663,0.175832,0.347012
8.906250,-0.029003,0.078061,0.332766,0.446721
8.910156,-0.009126,0.167228,0.331094,0.310300
8.914063,-0.040852,0.126347,0.207573,0.083430
8.917969,0.120503,0.015673,0.144145,-0.034944
8.921875,-0.064588,-0.017399,0.007193,-0.009567
8.925781,-0.071756,-0.096873,-0.272503,-0.162800
8.929688,-0.205757,-0.244643,-0.223886,-0.104624
8.933594,-0.362142,-0.379961,-0.396436,-0.248228
8.937500,-0.333737,-0.459582,-0.413294,-0.078114
8.941406,-0.546093,-0.555936,-0.260911,-0.027251
8.945313,-0.462272,-0.399669,-0.270280,-0.020858
8.949219,-0.669315,-0.417801,-0.179993,-0.086363
8.953125,-0.649270,-0.492809,-0.165210,0.155014
8.957031,-0.710231,-0.395496,-0.246344,0.110675
8.960938,-0.693351,-0.544444,-0.102433,0.239035
8.964844,-0.636593,-0.419905,-0.189929,0.121060
8.968750,-0.703143,-0.418489,-0.077308,0.336057
8.972656,-0.841624,-0.577348,-0.160208,0.446571
8.976563,-0.808809,-0.420757,0.070023,0.436648
8.980469,-0.816923,-0.444350,0.268186,0.595086
8.984375,-0.728608,-0.296025,0.454445,0.840716
8.988281,-0.529778,-0.113141,0.506060,1.085365
8.992188,-0.359725,0.102857,0.753597,1.246471
8.996094,-0.206486,0.457774,0.902491,1.311735
9.000000,-0.037329,0.698130,1.055300,1.418769
9.003906,0.155593,0.826822,1.263023,1.277652
9.007813,0.414373,1.056101,1.325935,1.205616
9.011719,0.581152,0.980491,1.169868,1.132494
9.015625,0.649921,1.072648,1.219108,0.950911
9.019531,0.736879,1.041746,0.982461,0.747129
9.023438,0.833185,0.947833,0.865941,0.664899
9.027344,0.852060,0.932459,0.859135,0.392835
9.031250,0.733161,0.869913,0.661300,0.420349
9.035156,0.657772,0.714748,0.507815,0.221494
9.039063,0.640301,0.644335,0.550393,0.313877
9.042969,0.667917,0.625582,0.499027,0.102632
9.046875,0.538240,0.639828,0.425097,0.090728
9.050781,0.600130,0.603594,0.293204,0.092158
9.054688,0.576607,0.468454,0.336159,0.019781
9.058594,0.545620,0.350491,0.165136,0.045420
9.062500,0.514361,0.282024,0.030570,-0.014073
9.066406,0.338862,0.176626,0.007873,-0.154052
9.070313,0.152050,0.132521,-0.134017,-0.110994
9.074219,0.036577,0.119418,-0.072772,-0.081405
9.078125,-0.063448,-0.091979,-0.001407,-0.106953
9.082031,-0.115928,0.079742,0.103954,0.114637
9.085938,0.037463,0.057913,0.121289,0.084853
9.089844,-0.090103,0.116740,0.141768,0.277515
9.093750,0.121591,0.346733,0.454541,0.341360
9.097656,0.264805,0.384365,0.439308,0.526806
9.101563,0.267201,0.571302,0.555677,0.482343
9.105469,0.439890,0.698922,0.609022,0.539158
9.109375,0.533715,0.674009,0.641264,0.291780
9.113281,0.754462,0.680349,0.509030,0.215268
9.117188,0.597237,0.634053,0.428874,0.201985
9.121094,0.600982,0.478321,0.338062,-0.006679
9.125000,0.549711,0.423019,0.180319,-0.198131
9.128906,0.552754,0.346352,0.129470,-0.102926
9.132813,0.515007,0.251008,0.074828,-0.276717
9.136719,0.435041,0.275167,0.034434,-0.220436
9.140625,0.354089,0.117501,-0.044122,-0.176300
9.144531,0.381962,0.137161,0.095414,-0.070864
9.148438,0.211554,0.266178,-0.054279,-0.132078
9.152344,0.374549,0.149489,0.123392,-0.118617
9.156250,0.369626,0.269657,-0.074933,-0.229199
9.160156,0.325884,0.171643,-0.036599,-0.260380
9.164063,0.175121,0.155248,-0.138249,-0.191246
9.167969,0.270082,-0.013811,-0.028880,-0.122936
9.171875,0.185453,0.087148,-0.162593,-0.257168
9.175781,0.053130,0.060778,-0.085273,-0.152156
9.179688,0.043303,0.110993,-0.030344,-0.120764
9.183594,0.090864,0.043467,0.009671,0.108465
9.187500,0.137282,0.111174,0.102870,0.075888
9.191406,0.262221,0.269418,0.306872,0.209331
9.195313,0.446198,0.417994,0.358342,0.341612
9.199219,0.631972,0.518660,0.463601,0.372596
9.203125,0.785473,0.774702,0.435094,0.221045
9.207031,0.869935,0.664221,0.470258,0.139653
9.210938,0.974945,0.770656,0.431562,-0.034791
9.214844,1.017872,0.672986,0.340324,-0.335404
9.218750,0.904650,0.601252,0.056434,-0.471300
9.222656,0.861592,0.353484,-0.227579,-0.580718
9.226563,0.774757,0.304771,-0.284533,-0.747485
9.230469,0.672044,0.103900,-0.487476,-0.884345
9.234375,0.383225,-0.159750,-0.676932,-1.039098
9.238281,0.241787,-0.300448,-0.616264,-1.009757
9.242188,0.138487,-0.345889,-0.733652,-1.080288
9.246094,0.007531,-0.492518,-0.913289,-0.947242
9.250000,-0.060920,-0.454242,-0.891613,-1.045170
9.253906,-0.069039,-0.522702,-0.992985,-0.970564
9.257813,-0.297594,-0.665943,-1.032599,-1.024626
9.261719,-0.224286,-0.833229,-1.104943,-1.064253
9.265625,-0.439070,-0.850324,-1.135226,-1.053144
9.269531,-0.587463,-0.930997,-1.168150,-0.958228
9.273438,-0.682492,-1.128031,-1.092039,-0.807527
9.277344,-0.814498,-1.028008,-0.966404,-0.700385
9.281250,-0.993261,-1.132390,-1.038733,-0.501865
9.285156,-0.955945,-0.970163,-0.900962,-0.389966
9.289063,-0.893730,-0.920718,-0.573694,-0.239075
9.292969,-0.765738,-0.659370,-0.385909,-0.011742
9.296875,-0.642107,-0.523647,-0.175284,0.198411
9.300781,-0.506700,-0.438660,-0.147104,0.206946
9.304688,-0.405034,-0.299744,0.032424,0.141807
9.308594,-0.191515,-0.175780,-0.012475,0.179863
9.312500,-0.143983,-0.058528,0.070672,0.208463
9.316406,-0.054671,-0.110543,0.013040,-0.031325
9.320313,-0.098867,0.001323,-0.063261,-0.027150
9.324219,-0.079450,-0.240109,-0.107539,-0.207506
9.328125,-0.096235,-0.226225,-0.287839,-0.300499
9.332031,-0.118003,-0.326659,-0.265359,-0.313732
9.335938,-0.300318,-0.300089,-0.405974,-0.184674
9.339844,-0.306900,-0.428678,-0.294143,-0.258669
9.343750,-0.399901,-0.314917,-0.317045,-0.228758
9.347656,-0.252663,-0.432430,-0.263783,-0.090939
9.351563,-0.219935,-0.392101,-0.350572,-0.201737
9.355469,-0.207340,-0.331094,-0.307161,-0.210342
9.359375,-0.228312,-0.352698,-0.445010,-0.216134
9.363281,-0.350911,-0.396503,-0.440843,-0.192095
9.367188,-0.345660,-0.534220,-0.403498,-0.207628
9.371094,-0.443079,-0.559055,-0.478212,-0.261286
9.375000,-0.536921,-0.571005,-0.467048,-0.102390
9.378906,-0.605235,-0.597697,-0.326802,-0.002825
9.382813,-0.671928,-0.538355,-0.259551,0.059745
9.386719,-0.693194,-0.423578,-0.207552,0.151642
9.390625,-0.611030,-0.463406,0.018348,0.291096
9.394531,-0.394138,-0.184955,0.088092,0.299731
9.398438,-0.452940,-0.124955,0.283333,0.476151
9.402344,-0.134300,-0.015388,0.261616,0.414422
9.406250,-0.111335,0.099882,0.375079,0.434578
9.410156,0.049158,0.173138,0.206947,0.192851
9.414063,0.005081,0.074043,0.246953,0.128036
9.417969,-0.045713,0.115275,0.100163,0.108634
9.421875,0.025670,-0.122803,-0.163427,-0.096798
9.425781,-0.121271,-0.212745,-0.257361,-0.114241
9.429688,-0.146527,-0.205256,-0.224241,-0.143879
9.433594,-0.414530,-0.337771,-0.258020,-0.189794
9.437500,-0.397627,-0.480171,-0.435939,-0.268150
9.441406,-0.438076,-0.385671,-0.334962,-0.185869
9.445313,-0.594033,-0.469832,-0.370381,-0.115692
9.449219,-0.529339,-0.513042,-0.197774,-0.012344
9.453125,-0.508641,-0.408680,-0.160073,0.147450
9.457031,-0.691689,-0.472332,-0.283526,0.188132
9.460938,-0.558059,-0.425047,-0.113248,0.241736
9.464844,-0.605399,-0.526407,-0.228927,0.154099
9.468750,-0.818145,-0.427802,-0.173601,0.284569
9.472656,-0.707491,-0.508344,-0.058735,0.348050
9.476563,-0.758310,-0.505910,0.137327,0.528042
9.480469,-0.732230,-0.318323,0.167194,0.575678
9.484375,-0.817130,-0.301544,0.334265,0.859551
9.488281,-0.537867,-0.000591,0.638567,1.081893
9.492188,-0.493568,0.272068,0.693141,1.145445
9.496094,-0.159641,0.515276,1.017230,1.370423
9.500000,0.058683,0.733182,1.171326,1.316800
9.503906,0.258631,0.934435,1.270370,1.384132
9.507813,0.492250,0.952982,1.232851,1.184390
9.511719,0.647570,1.147363,1.208217,1.141370
9.515625,0.658571,1.110243,1.060678,0.873490
9.519531,0.857632,0.951587,1.094928,0.803748
9.523438,0.900111,1.006476,0.827352,0.666242
9.527344,0.775865,0.843258,0.846879,0.471551
9.531250,0.829454,0.753007,0.600599,0.323839
9.535156,0.587369,0.660401,0.641631,0.276441
9.539063,0.622412,0.741135,0.432094,0.236743
9.542969,0.532107,0.530894,0.369584,0.239253
9.546875,0.601055,0.622037,0.365306,0.176783
9.550781,0.496920,0.546190,0.267140,0.103029
9.554688,0.549722,0.571951,0.211716,-0.007667
9.558594,0.526799,0.465884,0.143236,-0.082590
9.562500,0.524900,0.387577,0.015162,-0.062818
9.566406,0.318420,0.158695,0.116530,-0.207171
9.570313,0.138551,0.031967,-0.029670,-0.166207
9.574219,0.185075,-0.002775,-0.130235,-0.131854
9.578125,0.099314,0.044571,-0.133791,-0.142562
9.582031,-0.104526,-0.091346,0.076752,-0.051671
9.585938,-0.108120,0.029888,0.177524,0.249742
9.589844,-0.076350,0.063083,0.258769,0.234485
9.593750,0.098273,0.184974,0.442703,0.466706
9.597656,0.207476,0.395930,0.484304,0.556271
9.601563,0.299462,0.561501,0.651721,0.404809
9.605469,0.447283,0.599258,0.610335,0.411660
9.609375,0.649501,0.703551,0.633058,0.336130
9.613281,0.650958,0.648845,0.560456,0.246382
9.617188,0.737131,0.633256,0.388588,0.035675
9.621094,0.581566,0.624882,0.269879,0.010352
9.625000,0.694389,0.392046,0.141907,-0.107756
9.628906,0.504835,0.403337,0.199221,-0.105497
9.632813,0.390953,0.327010,-0.007752,-0.142671
9.636719,0.378981,0.127582,0.006094,-0.274753
9.640625,0.293569,0.166287,0.078583,-0.252749
9.644531,0.248418,0.175977,0.085970,-0.210852
9.648438,0.320337,0.086087,-0.024144,-0.088441
9.652344,0.325360,0.107790,0.019771,-0.154802
9.656250,0.246664,0.095377,0.027399,-0.107262
9.660156,0.328079,0.072109,-0.093888,-0.124612
9.664063,0.290680,0.163378,-0.055607,-0.184878
9.667969,0.279264,0.054342,-0.012753,-0.244335
9.671875,0.175789,0.022036,-0.079833,-0.249746
9.675781,0.100353,-0.060337,-0.070036,-0.236918
9.679688,0.129153,0.031751,-0.005354,0.010936
9.683594,0.145088,0.090320,-0.004045,0.110303
9.687500,0.103530,0.209920,0.141786,0.186130
9.691406,0.263772,0.230528,0.296672,0.258244
9.695313,0.420011,0.519302,0.485218,0.378387
9.699219,0.500735,0.689590,0.483803,0.336168
9.703125,0.651963,0.709247,0.627478,0.195842
9.707031,0.879424,0.832676,0.438391,0.105476
9.710938,0.932173,0.755930,0.304746,0.033084
9.714844,0.918755,0.609530,0.252644,-0.191894
9.718750,0.864351,0.548438,-0.004189,-0.484801
9.722656,0.862005,0.475260,-0.156325,-0.728834
9.726563,0.759583,0.174020,-0.285263,-0.825284
9.730469,0.600228,0.066746,-0.520240,-0.989315
9.734375,0.398024,-0.012238,-0.681530,-0.970079
9.738281,0.223238,-0.250122,-0.714205,-0.952135
9.742188,0.289563,-0.235400,-0.713287,-1.092425
9.746094,0.118560,-0.349753,-0.756006,-1.041261
9.750000,0.063949,-0.491255,-0.865184,-1.061631
9.753906,-0.094614,-0.677593,-0.968238,-0.981092
9.757813,-0.114910,-0.624208,-1.019112,-1.075209
9.761719,-0.374627,-0.695840,-1.153815,-1.045546
9.765625,-0.411473,-0.862868,-1.143424,-1.043853
9.769531,-0.559982,-0.941295,-1.112883,-1.000581
9.773438,-0.672802,-1.010940,-1.106851,-0.967807
9.777344,-0.778977,-1.094234,-1.065394,-0.747454
9.781250,-0.951519,-1.132683,-0.945357,-0.610018
9.785156,-0.969028,-0.935006,-0.786585,-0.363483
9.789063,-0.991573,-0.899622,-0.585226,-0.188253
9.792969,-0.794988,-0.625765,-0.515673,-0.067904
9.796875,-0.769721,-0.600770,-0.237794,0.118364
9.800781,-0.531396,-0.395177,-0.098781,0.218658
9.804688,-0.306766,-0.195478,0.072169,0.201309
9.808594,-0.255169,-0.070128,0.010146,0.297352
9.812500,-0.204658,0.023782,0.045468,0.168285
9.816406,-0.109150,-0.128796,-0.045252,-0.054142
9.820313,-0.041530,-0.135899,-0.144480,0.016358
9.824219,-0.087295,-0.107598,-0.261269,-0.178960
9.828125,-0.106769,-0.250980,-0.246188,-0.176986
9.832031,-0.113227,-0.268628,-0.217021,-0.267127
9.835938,-0.299002,-0.357347,-0.240930,-0.177246
9.839844,-0.341510,-0.380976,-0.316603,-0.165877
9.843750,-0.349563,-0.273187,-0.335511,-0.112799
9.847656,-0.381064,-0.396035,-0.238236,-0.157908
9.851563,-0.200654,-0.367573,-0.221760,-0.217003
9.855469,-0.211846,-0.268354,-0.272833,-0.282479
9.859375,-0.253503,-0.466431,-0.393894,-0.279953
9.863281,-0.437905,-0.336755,-0.464077,-0.337071
9.867188,-0.502622,-0.450333,-0.403304,-0.210281
9.871094,-0.439554,-0.603826,-0.519861,-0.187656
9.875000,-0.512143,-0.639818,-0.375371,-0.208204
9.878906,-0.759444,-0.600289,-0.361910,-0.043197
9.882813,-0.621482,-0.608136,-0.252562,-0.020065
9.886719,-0.738437,-0.506239,-0.292366,0.067505
9.890625,-0.633359,-0.440108,-0.053023,0.280247
9.894531,-0.514607,-0.157321,0.142068,0.432311
9.898438,-0.430992,-0.155153,0.219063,0.471237
9.902344,-0.291971,0.097084,0.202388,0.480667
9.906250,-0.125498,0.169169,0.199242,0.420731
9.910156,-0.021753,0.069051,0.192759,0.307880
9.914063,0.053170,0.076496,0.221930,0.135064
9.917969,-0.012185,0.123632,0.067774,0.013117
9.921875,0.016866,-0.075778,-0.063357,-0.077637
9.925781,-0.138237,-0.264076,-0.094941,-0.095200
9.929688,-0.140350,-0.229359,-0.332743,-0.262688
9.933594,-0.324557,-0.414087,-0.279356,-0.247922
9.937500,-0.434787,-0.374924,-0.285234,-0.235314
9.941406,-0.470775,-0.545132,-0.372931,-0.046765
9.945313,-0.601858,-0.471169,-0.273588,-0.123230
9.949219,-0.482251,-0.459149,-0.177223,-0.036620
9.953125,-0.504482,-0.485931,-0.239091,0.080925
9.957031,-0.536044,-0.428790,-0.223029,0.008672
